Frequency (Hz)	Level (dB)
1.953125	-104.188301
3.906250	-97.231407
5.859375	-91.932915
7.812500	-90.669388
9.765625	-86.363037
11.718750	-82.939926
13.671875	-82.590775
15.625000	-82.353195
17.578125	-81.623306
19.531250	-80.276550
21.484375	-78.847000
23.437500	-77.428612
25.390625	-77.820518
27.343750	-77.443008
29.296875	-77.730690
31.250000	-78.016182
33.203125	-77.722733
35.156250	-78.033600
37.109375	-78.129089
39.062500	-79.001190
41.015625	-77.692635
42.968750	-77.225197
44.921875	-77.166969
46.875000	-76.497627
48.828125	-76.303490
50.781250	-76.208885
52.734375	-75.698776
54.687500	-75.094215
56.640625	-73.820671
58.593750	-73.119682
60.546875	-73.514709
62.500000	-73.034874
64.453125	-75.062607
66.406250	-77.963463
68.359375	-77.567368
70.312500	-76.409439
72.265625	-75.438377
74.218750	-75.553688
76.171875	-76.443443
78.125000	-77.642456
80.078125	-79.760361
82.031250	-79.149376
83.984375	-77.950317
85.937500	-76.373093
87.890625	-77.286087
89.843750	-78.570030
91.796875	-78.067818
93.750000	-78.202507
95.703125	-79.237617
97.656250	-79.136391
99.609375	-79.430603
101.562500	-78.876556
103.515625	-78.479599
105.468750	-78.512184
107.421875	-79.136490
109.375000	-78.312691
111.328125	-78.029800
113.281250	-76.516609
115.234375	-76.384605
117.187500	-74.906151
119.140625	-68.869629
121.093750	-69.174332
123.046875	-75.676445
125.000000	-78.310585
126.953125	-78.641655
128.906250	-78.879219
130.859375	-78.771416
132.812500	-78.143066
134.765625	-77.854935
136.718750	-77.965393
138.671875	-77.355057
140.625000	-77.015915
142.578125	-77.888840
144.531250	-77.357353
146.484375	-76.871979
148.437500	-76.169769
150.390625	-75.446770
152.343750	-75.746101
154.296875	-76.397560
156.250000	-75.578209
158.203125	-75.384857
160.156250	-75.150826
162.109375	-75.540627
164.062500	-76.500305
166.015625	-76.348137
167.968750	-77.017700
169.921875	-77.321289
171.875000	-76.974861
173.828125	-76.609360
175.781250	-76.219910
177.734375	-76.441299
179.687500	-75.804840
181.640625	-76.321320
183.593750	-75.855507
185.546875	-76.033112
187.500000	-76.471680
189.453125	-75.577400
191.406250	-75.106232
193.359375	-74.568054
195.312500	-74.446091
197.265625	-75.126709
199.218750	-74.264244
201.171875	-74.039284
203.125000	-73.320831
205.078125	-73.302696
207.031250	-73.259552
208.984375	-73.399895
210.937500	-72.570671
212.890625	-71.559288
214.843750	-71.782768
216.796875	-71.557381
218.750000	-72.056030
220.703125	-71.635887
222.656250	-71.264137
224.609375	-70.682907
226.562500	-71.052658
228.515625	-71.120193
230.468750	-69.812515
232.421875	-68.808754
234.375000	-68.756615
236.328125	-69.159355
238.281250	-68.563034
240.234375	-62.682972
242.187500	-60.782475
244.140625	-65.802673
246.093750	-66.659653
248.046875	-65.407059
250.000000	-64.649498
251.953125	-64.217728
253.906250	-63.213371
255.859375	-62.433533
257.812500	-62.883213
259.765625	-63.116020
261.718750	-62.590202
263.671875	-62.214439
265.625000	-61.720459
267.578125	-61.546665
269.531250	-61.905041
271.484375	-61.866646
273.437500	-62.628868
275.390625	-62.870403
277.343750	-62.977810
279.296875	-64.399704
281.250000	-64.944923
283.203125	-65.190582
285.156250	-65.115067
287.109375	-65.545341
289.062500	-65.959641
291.015625	-66.252426
292.968750	-66.717094
294.921875	-67.316986
296.875000	-68.231102
298.828125	-68.676720
300.781250	-69.016167
302.734375	-69.123344
304.687500	-69.558304
306.640625	-69.471832
308.593750	-69.752953
310.546875	-70.037086
312.500000	-70.749985
314.453125	-70.163643
316.406250	-70.535400
318.359375	-71.383110
320.312500	-71.802307
322.265625	-72.218323
324.218750	-72.032883
326.171875	-72.725388
328.125000	-72.626259
330.078125	-71.999817
332.031250	-72.431602
333.984375	-72.452042
335.937500	-72.774216
337.890625	-73.012260
339.843750	-73.533539
341.796875	-73.471428
343.750000	-72.961754
345.703125	-73.726242
347.656250	-73.744766
349.609375	-74.076355
351.562500	-73.492416
353.515625	-73.017059
355.468750	-73.602646
357.421875	-74.572868
359.375000	-74.465935
361.328125	-74.659477
363.281250	-74.365128
365.234375	-75.320465
367.187500	-75.288826
369.140625	-74.671646
371.093750	-74.491043
373.046875	-74.317520
375.000000	-74.459320
376.953125	-75.228477
378.906250	-74.901413
380.859375	-74.751915
382.812500	-74.701172
384.765625	-75.073448
386.718750	-75.401520
388.671875	-74.942917
390.625000	-75.003258
392.578125	-75.942741
394.531250	-75.167152
396.484375	-74.777893
398.437500	-75.199837
400.390625	-75.049973
402.343750	-74.463432
404.296875	-74.564613
406.250000	-75.603691
408.203125	-75.232903
410.156250	-75.188042
412.109375	-75.277100
414.062500	-75.477150
416.015625	-74.545692
417.968750	-74.689919
419.921875	-74.972427
421.875000	-74.742546
423.828125	-74.081619
425.781250	-74.061050
427.734375	-74.739960
429.687500	-74.482925
431.640625	-73.606133
433.593750	-74.100067
435.546875	-73.794670
437.500000	-73.240311
439.453125	-74.030106
441.406250	-73.989235
443.359375	-73.739433
445.312500	-73.103935
447.265625	-72.986679
449.218750	-72.847420
451.171875	-73.207726
453.125000	-73.653053
455.078125	-72.632362
457.031250	-72.707375
458.984375	-72.351654
460.937500	-71.727150
462.890625	-71.892601
464.843750	-72.051056
466.796875	-71.320953
468.750000	-70.637123
470.703125	-70.667442
472.656250	-71.117455
474.609375	-71.488899
476.562500	-70.943024
478.515625	-70.493080
480.468750	-70.171562
482.421875	-69.775185
484.375000	-69.435173
486.328125	-69.407135
488.281250	-68.948021
490.234375	-68.291931
492.187500	-68.236671
494.140625	-67.565369
496.093750	-67.491043
498.046875	-67.692848
500.000000	-67.326042
501.953125	-66.259041
503.906250	-66.537582
505.859375	-65.303101
507.812500	-64.481918
509.765625	-64.555702
511.718750	-63.931942
513.671875	-63.856113
515.625000	-62.664837
517.578125	-62.640469
519.531250	-62.211159
521.484375	-61.748192
523.437500	-61.682182
525.390625	-61.503971
527.343750	-61.194149
529.296875	-60.656670
531.250000	-60.145267
533.203125	-59.819359
535.156250	-60.308552
537.109375	-60.895046
539.062500	-61.502720
541.015625	-61.212772
542.968750	-61.480606
544.921875	-62.569927
546.875000	-62.923306
548.828125	-63.356350
550.781250	-64.178001
552.734375	-63.749691
554.687500	-63.840183
556.640625	-64.298637
558.593750	-64.931892
560.546875	-66.129318
562.500000	-66.717964
564.453125	-66.296356
566.406250	-67.348427
568.359375	-67.470253
570.312500	-67.669083
572.265625	-68.213997
574.218750	-68.878242
576.171875	-68.992012
578.125000	-68.924271
580.078125	-69.376572
582.031250	-69.251358
583.984375	-69.988281
585.937500	-70.410423
587.890625	-70.014679
589.843750	-69.995216
591.796875	-70.540535
593.750000	-70.739944
595.703125	-71.230766
597.656250	-70.939369
599.609375	-70.872528
601.562500	-71.326591
603.515625	-71.885529
605.468750	-72.082886
607.421875	-72.095718
609.375000	-72.386009
611.328125	-72.274559
613.281250	-72.437263
615.234375	-72.424492
617.187500	-72.501701
619.140625	-72.525002
621.093750	-72.338409
623.046875	-72.964478
625.000000	-72.486855
626.953125	-72.409950
628.906250	-73.017738
630.859375	-73.360123
632.812500	-72.744286
634.765625	-73.124084
636.718750	-73.194359
638.671875	-72.916718
640.625000	-73.240913
642.578125	-73.169617
644.531250	-72.644653
646.484375	-72.964859
648.437500	-73.191933
650.390625	-73.063171
652.343750	-72.973907
654.296875	-73.157295
656.250000	-73.465477
658.203125	-73.572945
660.156250	-73.745712
662.109375	-73.466805
664.062500	-72.908813
666.015625	-73.350563
667.968750	-73.769440
669.921875	-73.852081
671.875000	-73.538261
673.828125	-73.762108
675.781250	-74.255814
677.734375	-74.064980
679.687500	-73.738518
681.640625	-72.510094
683.593750	-72.614746
685.546875	-72.371323
687.500000	-72.990303
689.453125	-73.220840
691.406250	-73.574860
693.359375	-73.267197
695.312500	-73.531303
697.265625	-72.912910
699.218750	-72.998932
701.171875	-72.320946
703.125000	-71.921738
705.078125	-71.888275
707.031250	-72.202065
708.984375	-72.337166
710.937500	-71.734985
712.890625	-71.418404
714.843750	-71.271858
716.796875	-71.320381
718.750000	-71.575027
720.703125	-71.277649
722.656250	-71.383720
724.609375	-70.757584
726.562500	-70.340782
728.515625	-70.492203
730.468750	-70.270775
732.421875	-70.566772
734.375000	-70.091743
736.328125	-69.793602
738.281250	-69.258408
740.234375	-69.076790
742.187500	-68.820236
744.140625	-68.556320
746.093750	-68.431023
748.046875	-68.407661
750.000000	-68.323380
751.953125	-67.877045
753.906250	-67.679214
755.859375	-67.477951
757.812500	-67.212196
759.765625	-66.415619
761.718750	-66.211502
763.671875	-65.828674
765.625000	-65.574989
767.578125	-64.973351
769.531250	-64.377274
771.484375	-64.564896
773.437500	-64.213806
775.390625	-63.156105
777.343750	-62.945595
779.296875	-62.689556
781.250000	-62.926403
783.203125	-61.814400
785.156250	-60.623989
787.109375	-59.898075
789.062500	-60.001640
791.015625	-59.738579
792.968750	-58.545589
794.921875	-58.651108
796.875000	-58.303589
798.828125	-57.604816
800.781250	-58.153252
802.734375	-58.265915
804.687500	-58.898575
806.640625	-59.322044
808.593750	-59.193878
810.546875	-59.577328
812.500000	-60.171795
814.453125	-60.288799
816.406250	-61.065578
818.359375	-61.838047
820.312500	-62.055080
822.265625	-62.639439
824.218750	-63.030087
826.171875	-63.317116
828.125000	-63.758408
830.078125	-64.400452
832.031250	-64.994400
833.984375	-65.651436
835.937500	-65.813606
837.890625	-66.153076
839.843750	-66.753342
841.796875	-66.919281
843.750000	-66.743935
845.703125	-67.158363
847.656250	-67.122597
849.609375	-67.132927
851.562500	-67.881485
853.515625	-68.134323
855.468750	-67.972649
857.421875	-68.121788
859.375000	-68.693405
861.328125	-68.874130
863.281250	-69.092712
865.234375	-69.529213
867.187500	-69.511711
869.140625	-69.140808
871.093750	-69.066246
873.046875	-69.222145
875.000000	-69.721359
876.953125	-70.230629
878.906250	-70.953461
880.859375	-70.050644
882.812500	-69.989662
884.765625	-70.652466
886.718750	-70.390297
888.671875	-70.140671
890.625000	-70.914543
892.578125	-72.056351
894.531250	-71.773705
896.484375	-71.824677
898.437500	-71.594353
900.390625	-70.994019
902.343750	-71.172684
904.296875	-71.704361
906.250000	-70.887711
908.203125	-71.524307
910.156250	-72.028938
912.109375	-71.286385
914.062500	-71.439209
916.015625	-71.425919
917.968750	-71.195312
919.921875	-71.705452
921.875000	-71.378433
923.828125	-71.520630
925.781250	-71.394760
927.734375	-71.844826
929.687500	-71.353752
931.640625	-71.079887
933.593750	-71.238335
935.546875	-71.243759
937.500000	-71.473648
939.453125	-71.274658
941.406250	-70.979752
943.359375	-71.858597
945.312500	-71.766342
947.265625	-71.286942
949.218750	-70.981934
951.171875	-71.327477
953.125000	-70.997154
955.078125	-70.877106
957.031250	-70.929062
958.984375	-71.113403
960.937500	-71.434189
962.890625	-70.709290
964.843750	-70.559021
966.796875	-71.286179
968.750000	-71.573608
970.703125	-70.544441
972.656250	-70.005943
974.609375	-69.823990
976.562500	-69.880363
978.515625	-69.324280
980.468750	-69.354004
982.421875	-69.827423
984.375000	-69.960373
986.328125	-69.160797
988.281250	-69.428299
990.234375	-69.647446
992.187500	-68.961548
994.140625	-68.872993
996.093750	-69.150360
998.046875	-68.775810
1000.000000	-67.948555
1001.953125	-66.826164
1003.906250	-67.099442
1005.859375	-66.848473
1007.812500	-66.943512
1009.765625	-67.157036
1011.718750	-67.382156
1013.671875	-66.901848
1015.625000	-65.523010
1017.578125	-65.356964
1019.531250	-65.039314
1021.484375	-65.055779
1023.437500	-65.120857
1025.390625	-64.264839
1027.343750	-64.033409
1029.296875	-64.219315
1031.250000	-63.941582
1033.203125	-63.497269
1035.156250	-62.667015
1037.109375	-62.380135
1039.062500	-62.054214
1041.015625	-61.293423
1042.968750	-60.582142
1044.921875	-59.092152
1046.875000	-58.688995
1048.828125	-58.753922
1050.781250	-58.413891
1052.734375	-58.507233
1054.687500	-57.493286
1056.640625	-57.374657
1058.593750	-57.281116
1060.546875	-56.517666
1062.500000	-56.937202
1064.453125	-57.558243
1066.406250	-57.435379
1068.359375	-56.968147
1070.312500	-56.827103
1072.265625	-57.469376
1074.218750	-57.707958
1076.171875	-58.952854
1078.125000	-59.627811
1080.078125	-59.944771
1082.031250	-60.530853
1083.984375	-60.612438
1085.937500	-61.137306
1087.890625	-61.458225
1089.843750	-62.974045
1091.796875	-62.805386
1093.750000	-62.720268
1095.703125	-62.754623
1097.656250	-63.502773
1099.609375	-63.381561
1101.562500	-63.502865
1103.515625	-64.064682
1105.468750	-64.924500
1107.421875	-64.879379
1109.375000	-65.277740
1111.328125	-65.928139
1113.281250	-66.186249
1115.234375	-65.758965
1117.187500	-66.200729
1119.140625	-65.829010
1121.093750	-65.834526
1123.046875	-66.032112
1125.000000	-66.077911
1126.953125	-67.063759
1128.906250	-67.282463
1130.859375	-66.930138
1132.812500	-67.124901
1134.765625	-68.006004
1136.718750	-67.886742
1138.671875	-67.927681
1140.625000	-68.445229
1142.578125	-68.543594
1144.531250	-68.624825
1146.484375	-69.106789
1148.437500	-68.687752
1150.390625	-68.846703
1152.343750	-68.444283
1154.296875	-68.741539
1156.250000	-69.569756
1158.203125	-69.620407
1160.156250	-69.639946
1162.109375	-70.448715
1164.062500	-70.251129
1166.015625	-70.188492
1167.968750	-69.752136
1169.921875	-69.863693
1171.875000	-70.203568
1173.828125	-70.619354
1175.781250	-70.567039
1177.734375	-70.622017
1179.687500	-70.797501
1181.640625	-70.537216
1183.593750	-70.455399
1185.546875	-70.709679
1187.500000	-70.627304
1189.453125	-70.367371
1191.406250	-70.115761
1193.359375	-70.048103
1195.312500	-70.701607
1197.265625	-71.534050
1199.218750	-71.069687
1201.171875	-70.564774
1203.125000	-70.111618
1205.078125	-70.284958
1207.031250	-70.751556
1208.984375	-70.308167
1210.937500	-70.573158
1212.890625	-70.584236
1214.843750	-70.770348
1216.796875	-70.163925
1218.750000	-69.999413
1220.703125	-70.517403
1222.656250	-70.509811
1224.609375	-70.335052
1226.562500	-70.242554
1228.515625	-69.877190
1230.468750	-69.506836
1232.421875	-69.938568
1234.375000	-70.397736
1236.328125	-69.782845
1238.281250	-68.903358
1240.234375	-68.672676
1242.187500	-68.721886
1244.140625	-68.832764
1246.093750	-68.152870
1248.046875	-67.898476
1250.000000	-68.004898
1251.953125	-67.814316
1253.906250	-67.602188
1255.859375	-67.875717
1257.812500	-67.679741
1259.765625	-68.073975
1261.718750	-67.658592
1263.671875	-66.894394
1265.625000	-67.079521
1267.578125	-67.033379
1269.531250	-66.183266
1271.484375	-66.311935
1273.437500	-66.083672
1275.390625	-65.973358
1277.343750	-65.702499
1279.296875	-65.554237
1281.250000	-65.452919
1283.203125	-64.984200
1285.156250	-64.198051
1287.109375	-64.466713
1289.062500	-63.503220
1291.015625	-63.225437
1292.968750	-63.117023
1294.921875	-62.719658
1296.875000	-62.154251
1298.828125	-61.702328
1300.781250	-61.523899
1302.734375	-61.509319
1304.687500	-61.078938
1306.640625	-60.048271
1308.593750	-59.649284
1310.546875	-58.787380
1312.500000	-58.229500
1314.453125	-57.389530
1316.406250	-57.040695
1318.359375	-56.519012
1320.312500	-56.387978
1322.265625	-56.199841
1324.218750	-56.286652
1326.171875	-56.205772
1328.125000	-55.311459
1330.078125	-54.662746
1332.031250	-54.960827
1333.984375	-56.147991
1335.937500	-55.692535
1337.890625	-55.985065
1339.843750	-56.827450
1341.796875	-57.229443
1343.750000	-57.902317
1345.703125	-58.387413
1347.656250	-57.855141
1349.609375	-58.803005
1351.562500	-60.110786
1353.515625	-59.778385
1355.468750	-60.222023
1357.421875	-60.690083
1359.375000	-60.429226
1361.328125	-61.464340
1363.281250	-62.021358
1365.234375	-62.140980
1367.187500	-62.873833
1369.140625	-63.446171
1371.093750	-63.638172
1373.046875	-63.880898
1375.000000	-63.959671
1376.953125	-64.099640
1378.906250	-64.975761
1380.859375	-64.941681
1382.812500	-65.187424
1384.765625	-65.374413
1386.718750	-65.315987
1388.671875	-65.309219
1390.625000	-65.516693
1392.578125	-65.777763
1394.531250	-66.269272
1396.484375	-66.215813
1398.437500	-66.578049
1400.390625	-67.140549
1402.343750	-66.864876
1404.296875	-66.935684
1406.250000	-67.501152
1408.203125	-66.951553
1410.156250	-67.665039
1412.109375	-67.560028
1414.062500	-67.346802
1416.015625	-67.546906
1417.968750	-67.687042
1419.921875	-67.842590
1421.875000	-68.849594
1423.828125	-68.604698
1425.781250	-67.571503
1427.734375	-67.867714
1429.687500	-68.260704
1431.640625	-68.220581
1433.593750	-68.615067
1435.546875	-69.303352
1437.500000	-68.873184
1439.453125	-68.317345
1441.406250	-68.470688
1443.359375	-68.666847
1445.312500	-69.079781
1447.265625	-68.953072
1449.218750	-68.606590
1451.171875	-68.939247
1453.125000	-69.118416
1455.078125	-68.687164
1457.031250	-68.771408
1458.984375	-69.274376
1460.937500	-69.126793
1462.890625	-68.854057
1464.843750	-68.668991
1466.796875	-67.632530
1468.750000	-67.739708
1470.703125	-68.207481
1472.656250	-68.827560
1474.609375	-68.418877
1476.562500	-67.805832
1478.515625	-68.063354
1480.468750	-68.754700
1482.421875	-68.762589
1484.375000	-68.320396
1486.328125	-67.889427
1488.281250	-68.271378
1490.234375	-68.579323
1492.187500	-67.576477
1494.140625	-67.500137
1496.093750	-67.940506
1498.046875	-67.936035
1500.000000	-67.744255
1501.953125	-67.186867
1503.906250	-67.284950
1505.859375	-67.373772
1507.812500	-67.299660
1509.765625	-67.270752
1511.718750	-66.866783
1513.671875	-66.015823
1515.625000	-66.843834
1517.578125	-66.184433
1519.531250	-66.092445
1521.484375	-65.828804
1523.437500	-65.830482
1525.390625	-66.156227
1527.343750	-65.702454
1529.296875	-64.669746
1531.250000	-65.314430
1533.203125	-65.168045
1535.156250	-64.686996
1537.109375	-64.314896
1539.062500	-64.840759
1541.015625	-64.735527
1542.968750	-63.726051
1544.921875	-63.432285
1546.875000	-62.788242
1548.828125	-63.194248
1550.781250	-63.239548
1552.734375	-62.050179
1554.687500	-61.949451
1556.640625	-61.432140
1558.593750	-60.880325
1560.546875	-60.908684
1562.500000	-60.457714
1564.453125	-59.961411
1566.406250	-59.514961
1568.359375	-59.879890
1570.312500	-59.397385
1572.265625	-58.494694
1574.218750	-58.126160
1576.171875	-57.338768
1578.125000	-56.735264
1580.078125	-56.314468
1582.031250	-55.871449
1583.984375	-55.245163
1585.937500	-54.351414
1587.890625	-53.192886
1589.843750	-53.459381
1591.796875	-53.560261
1593.750000	-52.986786
1595.703125	-53.237141
1597.656250	-53.029819
1599.609375	-53.441177
1601.562500	-53.607262
1603.515625	-53.576267
1605.468750	-53.502777
1607.421875	-54.765446
1609.375000	-55.588631
1611.328125	-56.241802
1613.281250	-56.684261
1615.234375	-56.824787
1617.187500	-57.355392
1619.140625	-57.194756
1621.093750	-58.110641
1623.046875	-58.582104
1625.000000	-58.419739
1626.953125	-59.112484
1628.906250	-59.970142
1630.859375	-60.315346
1632.812500	-60.526352
1634.765625	-61.215946
1636.718750	-61.328075
1638.671875	-61.155865
1640.625000	-61.476170
1642.578125	-61.727379
1644.531250	-61.881626
1646.484375	-62.891762
1648.437500	-62.952126
1650.390625	-63.487606
1652.343750	-63.054039
1654.296875	-63.089573
1656.250000	-63.481117
1658.203125	-63.481632
1660.156250	-63.980507
1662.109375	-63.878555
1664.062500	-64.409698
1666.015625	-64.335640
1667.968750	-64.632797
1669.921875	-64.695580
1671.875000	-64.901497
1673.828125	-65.477531
1675.781250	-65.605545
1677.734375	-65.185043
1679.687500	-65.208130
1681.640625	-65.906174
1683.593750	-65.512489
1685.546875	-66.155853
1687.500000	-66.250473
1689.453125	-66.224297
1691.406250	-66.014206
1693.359375	-66.020531
1695.312500	-66.626343
1697.265625	-66.309990
1699.218750	-65.677475
1701.171875	-66.984009
1703.125000	-66.790176
1705.078125	-66.273483
1707.031250	-66.153801
1708.984375	-66.388069
1710.937500	-66.543320
1712.890625	-66.999512
1714.843750	-66.472519
1716.796875	-66.732094
1718.750000	-66.975975
1720.703125	-67.032890
1722.656250	-67.228256
1724.609375	-66.955727
1726.562500	-66.954582
1728.515625	-66.948021
1730.468750	-67.314568
1732.421875	-66.813148
1734.375000	-66.870224
1736.328125	-66.141403
1738.281250	-66.927765
1740.234375	-67.038879
1742.187500	-66.688721
1744.140625	-66.529221
1746.093750	-66.553886
1748.046875	-66.930710
1750.000000	-66.024445
1751.953125	-65.377792
1753.906250	-65.720238
1755.859375	-65.963799
1757.812500	-66.158585
1759.765625	-66.131157
1761.718750	-66.191277
1763.671875	-65.799408
1765.625000	-65.426003
1767.578125	-65.329300
1769.531250	-65.011223
1771.484375	-65.658020
1773.437500	-65.566475
1775.390625	-65.792671
1777.343750	-65.288818
1779.296875	-64.634377
1781.250000	-64.590401
1783.203125	-64.116539
1785.156250	-64.209351
1787.109375	-63.852898
1789.062500	-63.438389
1791.015625	-63.519894
1792.968750	-63.954762
1794.921875	-62.972019
1796.875000	-62.568459
1798.828125	-62.397457
1800.781250	-61.896645
1802.734375	-62.597160
1804.687500	-62.737247
1806.640625	-61.996826
1808.593750	-61.509964
1810.546875	-61.929012
1812.500000	-61.319267
1814.453125	-60.347107
1816.406250	-60.258671
1818.359375	-60.726322
1820.312500	-59.907593
1822.265625	-59.435337
1824.218750	-59.585777
1826.171875	-58.761875
1828.125000	-58.052647
1830.078125	-57.736305
1832.031250	-57.180672
1833.984375	-56.897224
1835.937500	-56.401550
1837.890625	-56.910427
1839.843750	-55.844296
1841.796875	-54.928055
1843.750000	-54.212349
1845.703125	-53.897781
1847.656250	-54.059513
1849.609375	-54.272049
1851.562500	-53.186825
1853.515625	-52.682629
1855.468750	-51.818413
1857.421875	-50.724857
1859.375000	-50.275066
1861.328125	-51.245029
1863.281250	-51.305500
1865.234375	-51.139297
1867.187500	-51.872383
1869.140625	-52.868439
1871.093750	-53.110691
1873.046875	-52.745060
1875.000000	-52.947918
1876.953125	-53.778023
1878.906250	-54.415127
1880.859375	-55.261108
1882.812500	-55.465332
1884.765625	-56.239441
1886.718750	-56.093063
1888.671875	-56.015968
1890.625000	-56.298000
1892.578125	-56.851997
1894.531250	-57.460236
1896.484375	-57.847740
1898.437500	-58.374439
1900.390625	-59.181274
1902.343750	-59.713547
1904.296875	-59.296604
1906.250000	-59.132038
1908.203125	-59.152596
1910.156250	-59.519333
1912.109375	-59.676300
1914.062500	-60.408421
1916.015625	-60.606281
1917.968750	-61.186771
1919.921875	-61.332134
1921.875000	-61.593781
1923.828125	-61.802635
1925.781250	-62.115166
1927.734375	-61.604580
1929.687500	-62.462116
1931.640625	-62.845123
1933.593750	-62.652744
1935.546875	-62.548428
1937.500000	-63.188576
1939.453125	-62.699547
1941.406250	-62.867855
1943.359375	-63.709724
1945.312500	-63.411385
1947.265625	-63.259705
1949.218750	-63.537392
1951.171875	-64.453362
1953.125000	-64.150795
1955.078125	-63.895424
1957.031250	-63.812862
1958.984375	-63.940712
1960.937500	-64.114426
1962.890625	-64.450150
1964.843750	-63.613884
1966.796875	-63.882210
1968.750000	-63.920441
1970.703125	-63.588688
1972.656250	-63.870239
1974.609375	-63.707787
1976.562500	-63.928234
1978.515625	-64.340302
1980.468750	-64.327026
1982.421875	-64.539764
1984.375000	-65.088829
1986.328125	-64.517525
1988.281250	-64.387466
1990.234375	-64.622047
1992.187500	-64.889603
1994.140625	-64.312393
1996.093750	-63.729168
1998.046875	-64.798004
2000.000000	-65.201378
2001.953125	-64.022179
2003.906250	-63.697262
2005.859375	-63.813148
2007.812500	-64.254211
2009.765625	-64.110687
2011.718750	-63.838787
2013.671875	-63.989742
2015.625000	-64.320885
2017.578125	-64.095543
2019.531250	-63.680099
2021.484375	-63.107292
2023.437500	-63.026661
2025.390625	-63.001137
2027.343750	-63.512840
2029.296875	-63.369801
2031.250000	-63.710255
2033.203125	-63.358139
2035.156250	-62.627815
2037.109375	-62.463947
2039.062500	-62.583076
2041.015625	-62.372444
2042.968750	-62.449421
2044.921875	-62.018261
2046.875000	-62.014286
2048.828125	-62.153805
2050.781250	-61.731541
2052.734375	-60.923004
2054.687500	-61.469543
2056.640625	-60.442467
2058.593750	-60.788605
2060.546875	-60.754513
2062.500000	-60.217812
2064.453125	-60.413589
2066.406250	-60.484032
2068.359375	-59.772106
2070.312500	-59.758598
2072.265625	-59.105484
2074.218750	-58.609558
2076.171875	-58.721649
2078.125000	-58.682556
2080.078125	-58.559910
2082.031250	-58.047962
2083.984375	-57.654045
2085.937500	-57.716213
2087.890625	-56.690704
2089.843750	-56.289230
2091.796875	-55.543518
2093.750000	-56.119019
2095.703125	-55.643986
2097.656250	-54.480560
2099.609375	-53.876820
2101.562500	-53.541130
2103.515625	-52.805531
2105.468750	-52.950893
2107.421875	-52.688160
2109.375000	-51.790176
2111.328125	-51.247849
2113.281250	-50.973537
2115.234375	-50.556740
2117.187500	-50.140343
2119.140625	-49.221050
2121.093750	-48.777664
2123.046875	-48.217663
2125.000000	-48.532734
2126.953125	-49.116024
2128.906250	-48.917160
2130.859375	-49.351608
2132.812500	-50.037220
2134.765625	-50.090919
2136.718750	-49.855484
2138.671875	-51.582897
2140.625000	-52.376320
2142.578125	-52.184593
2144.531250	-52.850372
2146.484375	-52.593494
2148.437500	-52.689140
2150.390625	-53.337673
2152.343750	-53.922787
2154.296875	-54.286755
2156.250000	-54.663853
2158.203125	-55.526112
2160.156250	-55.834030
2162.109375	-55.751396
2164.062500	-55.803211
2166.015625	-56.417084
2167.968750	-56.259743
2169.921875	-56.394638
2171.875000	-56.743172
2173.828125	-56.850887
2175.781250	-58.447433
2177.734375	-58.485252
2179.687500	-59.159252
2181.640625	-59.382523
2183.593750	-58.674633
2185.546875	-58.766281
2187.500000	-59.448135
2189.453125	-58.881012
2191.406250	-59.869682
2193.359375	-60.040520
2195.312500	-60.150326
2197.265625	-59.534069
2199.218750	-59.250320
2201.171875	-59.845741
2203.125000	-60.107529
2205.078125	-60.097797
2207.031250	-60.835800
2208.984375	-60.373550
2210.937500	-60.262001
2212.890625	-60.482861
2214.843750	-60.892105
2216.796875	-60.324322
2218.750000	-60.241879
2220.703125	-60.856613
2222.656250	-60.572803
2224.609375	-60.773834
2226.562500	-60.756924
2228.515625	-61.161011
2230.468750	-61.394051
2232.421875	-61.570587
2234.375000	-61.321102
2236.328125	-61.598339
2238.281250	-61.544296
2240.234375	-61.431599
2242.187500	-61.651558
2244.140625	-61.849167
2246.093750	-61.687557
2248.046875	-61.828487
2250.000000	-61.384087
2251.953125	-61.009174
2253.906250	-61.541759
2255.859375	-61.688068
2257.812500	-61.651428
2259.765625	-62.026012
2261.718750	-61.890301
2263.671875	-61.629959
2265.625000	-61.047592
2267.578125	-61.194408
2269.531250	-61.031521
2271.484375	-61.300575
2273.437500	-61.659199
2275.390625	-61.721863
2277.343750	-61.226082
2279.296875	-60.989799
2281.250000	-61.665741
2283.203125	-61.496712
2285.156250	-61.818295
2287.109375	-61.072689
2289.062500	-60.495464
2291.015625	-60.512554
2292.968750	-59.862946
2294.921875	-61.047794
2296.875000	-60.893360
2298.828125	-60.455498
2300.781250	-59.952042
2302.734375	-59.581326
2304.687500	-59.552761
2306.640625	-60.140808
2308.593750	-59.627224
2310.546875	-59.228424
2312.500000	-59.339108
2314.453125	-59.150574
2316.406250	-59.309124
2318.359375	-59.464085
2320.312500	-58.564991
2322.265625	-58.076313
2324.218750	-58.193409
2326.171875	-58.324299
2328.125000	-57.410488
2330.078125	-56.902405
2332.031250	-56.783905
2333.984375	-57.614899
2335.937500	-57.314098
2337.890625	-57.188984
2339.843750	-56.033543
2341.796875	-56.307995
2343.750000	-56.135395
2345.703125	-55.061028
2347.656250	-55.302536
2349.609375	-55.454105
2351.562500	-54.776459
2353.515625	-54.452953
2355.468750	-54.099815
2357.421875	-53.723186
2359.375000	-53.688465
2361.328125	-53.101074
2363.281250	-52.661102
2365.234375	-51.612949
2367.187500	-51.686382
2369.140625	-50.998772
2371.093750	-50.574272
2373.046875	-50.436737
2375.000000	-49.680225
2376.953125	-49.728378
2378.906250	-49.407581
2380.859375	-48.674259
2382.812500	-48.288876
2384.765625	-47.978470
2386.718750	-47.725979
2388.671875	-47.903580
2390.625000	-47.450119
2392.578125	-46.362301
2394.531250	-46.701836
2396.484375	-46.883228
2398.437500	-47.212345
2400.390625	-47.673321
2402.343750	-47.728951
2404.296875	-47.751148
2406.250000	-48.950920
2408.203125	-49.588345
2410.156250	-50.053249
2412.109375	-49.941601
2414.062500	-50.210056
2416.015625	-50.073380
2417.968750	-50.755699
2419.921875	-51.348736
2421.875000	-51.855774
2423.828125	-52.440006
2425.781250	-53.107670
2427.734375	-53.374508
2429.687500	-53.372158
2431.640625	-53.455612
2433.593750	-54.270695
2435.546875	-55.005081
2437.500000	-55.119499
2439.453125	-55.188713
2441.406250	-55.988274
2443.359375	-56.107014
2445.312500	-56.202301
2447.265625	-56.215115
2449.218750	-56.265862
2451.171875	-55.594341
2453.125000	-55.887764
2455.078125	-56.574505
2457.031250	-56.525478
2458.984375	-57.291992
2460.937500	-57.030495
2462.890625	-56.623085
2464.843750	-56.921806
2466.796875	-57.625717
2468.750000	-58.251244
2470.703125	-58.417881
2472.656250	-57.941319
2474.609375	-58.252831
2476.562500	-58.491428
2478.515625	-58.450424
2480.468750	-58.585697
2482.421875	-58.561703
2484.375000	-58.735817
2486.328125	-58.404659
2488.281250	-58.271057
2490.234375	-58.538158
2492.187500	-58.711773
2494.140625	-58.411068
2496.093750	-58.911785
2498.046875	-58.956989
2500.000000	-58.813644
2501.953125	-58.642323
2503.906250	-59.062199
2505.859375	-59.284695
2507.812500	-59.466755
2509.765625	-59.546703
2511.718750	-59.146198
2513.671875	-59.626541
2515.625000	-59.492832
2517.578125	-58.956776
2519.531250	-59.350197
2521.484375	-59.635689
2523.437500	-59.358486
2525.390625	-59.424084
2527.343750	-59.113136
2529.296875	-58.617516
2531.250000	-59.008511
2533.203125	-59.300220
2535.156250	-60.090630
2537.109375	-59.603386
2539.062500	-59.342381
2541.015625	-58.797935
2542.968750	-58.410778
2544.921875	-58.674988
2546.875000	-58.484844
2548.828125	-58.229469
2550.781250	-57.838669
2552.734375	-57.683311
2554.687500	-58.308964
2556.640625	-58.887997
2558.593750	-57.947979
2560.546875	-58.210907
2562.500000	-58.782406
2564.453125	-57.975643
2566.406250	-58.192818
2568.359375	-57.960705
2570.312500	-57.101395
2572.265625	-57.302612
2574.218750	-57.652161
2576.171875	-56.705246
2578.125000	-55.884327
2580.078125	-56.435734
2582.031250	-56.970192
2583.984375	-56.574722
2585.937500	-56.657410
2587.890625	-55.873932
2589.843750	-55.827137
2591.796875	-55.245342
2593.750000	-55.608013
2595.703125	-55.821911
2597.656250	-54.348053
2599.609375	-54.638363
2601.562500	-54.830696
2603.515625	-54.632935
2605.468750	-53.889145
2607.421875	-53.026157
2609.375000	-53.005451
2611.328125	-53.009727
2613.281250	-52.827095
2615.234375	-52.866322
2617.187500	-52.267689
2619.140625	-51.573120
2621.093750	-51.448059
2623.046875	-51.620502
2625.000000	-51.102131
2626.953125	-50.996017
2628.906250	-50.096191
2630.859375	-48.774342
2632.812500	-49.241367
2634.765625	-49.546589
2636.718750	-49.066799
2638.671875	-48.204613
2640.625000	-47.304234
2642.578125	-46.574646
2644.531250	-45.986084
2646.484375	-45.769329
2648.437500	-44.971676
2650.390625	-44.694550
2652.343750	-44.675694
2654.296875	-44.894459
2656.250000	-43.906788
2658.203125	-44.066177
2660.156250	-44.710159
2662.109375	-45.119144
2664.062500	-45.738323
2666.015625	-45.428421
2667.968750	-45.293526
2669.921875	-45.574886
2671.875000	-45.762753
2673.828125	-46.487648
2675.781250	-47.698120
2677.734375	-48.337147
2679.687500	-47.920269
2681.640625	-48.500130
2683.593750	-49.276001
2685.546875	-50.250748
2687.500000	-49.752666
2689.453125	-50.077648
2691.406250	-50.618576
2693.359375	-50.785706
2695.312500	-51.203102
2697.265625	-51.009716
2699.218750	-51.434605
2701.171875	-51.819901
2703.125000	-51.513092
2705.078125	-52.128021
2707.031250	-52.575790
2708.984375	-52.146835
2710.937500	-52.778149
2712.890625	-53.478817
2714.843750	-53.746059
2716.796875	-53.586491
2718.750000	-53.952908
2720.703125	-53.977692
2722.656250	-54.261044
2724.609375	-54.698380
2726.562500	-54.255051
2728.515625	-54.603519
2730.468750	-54.993824
2732.421875	-55.771393
2734.375000	-55.278576
2736.328125	-55.319069
2738.281250	-54.771561
2740.234375	-55.496643
2742.187500	-56.420792
2744.140625	-55.350346
2746.093750	-55.348026
2748.046875	-56.255539
2750.000000	-55.922401
2751.953125	-56.174671
2753.906250	-55.659164
2755.859375	-55.787029
2757.812500	-55.471157
2759.765625	-55.697502
2761.718750	-55.655441
2763.671875	-56.030346
2765.625000	-56.500778
2767.578125	-56.237423
2769.531250	-56.302303
2771.484375	-56.174629
2773.437500	-56.763103
2775.390625	-56.341949
2777.343750	-56.550671
2779.296875	-56.959450
2781.250000	-57.081150
2783.203125	-57.285961
2785.156250	-56.966187
2787.109375	-56.815094
2789.062500	-57.501884
2791.015625	-56.956863
2792.968750	-56.757442
2794.921875	-56.494465
2796.875000	-56.786362
2798.828125	-56.960598
2800.781250	-56.794258
2802.734375	-56.964539
2804.687500	-56.724899
2806.640625	-55.834854
2808.593750	-56.355480
2810.546875	-56.643734
2812.500000	-56.336380
2814.453125	-56.392334
2816.406250	-55.729340
2818.359375	-55.305950
2820.312500	-54.830318
2822.265625	-54.971992
2824.218750	-55.089405
2826.171875	-55.536934
2828.125000	-55.578758
2830.078125	-54.891327
2832.031250	-54.563957
2833.984375	-54.552429
2835.937500	-54.689690
2837.890625	-55.140274
2839.843750	-54.936821
2841.796875	-54.242065
2843.750000	-53.907650
2845.703125	-53.995529
2847.656250	-54.115082
2849.609375	-53.645531
2851.562500	-53.689503
2853.515625	-53.409363
2855.468750	-52.916389
2857.421875	-53.309654
2859.375000	-53.360947
2861.328125	-53.039661
2863.281250	-52.429028
2865.234375	-51.755314
2867.187500	-51.798958
2869.140625	-51.231426
2871.093750	-50.997772
2873.046875	-51.114479
2875.000000	-51.013866
2876.953125	-50.628109
2878.906250	-50.370182
2880.859375	-49.925659
2882.812500	-49.137787
2884.765625	-49.253422
2886.718750	-48.815582
2888.671875	-48.843136
2890.625000	-48.926125
2892.578125	-48.340370
2894.531250	-47.561146
2896.484375	-47.520515
2898.437500	-46.259781
2900.390625	-45.681229
2902.343750	-45.765266
2904.296875	-46.100395
2906.250000	-45.762852
2908.203125	-44.927433
2910.156250	-44.853817
2912.109375	-44.120461
2914.062500	-44.370239
2916.015625	-44.250751
2917.968750	-43.540382
2919.921875	-42.969097
2921.875000	-43.064720
2923.828125	-43.108196
2925.781250	-42.723515
2927.734375	-43.326214
2929.687500	-43.803394
2931.640625	-44.250233
2933.593750	-44.256840
2935.546875	-44.569824
2937.500000	-44.001907
2939.453125	-44.381760
2941.406250	-44.889141
2943.359375	-44.683044
2945.312500	-45.304024
2947.265625	-45.961880
2949.218750	-46.576977
2951.171875	-46.840519
2953.125000	-46.664860
2955.078125	-47.184601
2957.031250	-48.056034
2958.984375	-48.427773
2960.937500	-48.391403
2962.890625	-48.435398
2964.843750	-48.453938
2966.796875	-49.225399
2968.750000	-49.929028
2970.703125	-50.632217
2972.656250	-50.593540
2974.609375	-50.816093
2976.562500	-50.081184
2978.515625	-51.167900
2980.468750	-51.379673
2982.421875	-51.228542
2984.375000	-51.948708
2986.328125	-51.994995
2988.281250	-51.965446
2990.234375	-52.921227
2992.187500	-52.051983
2994.140625	-52.546268
2996.093750	-53.591110
2998.046875	-53.245693
3000.000000	-52.779507
3001.953125	-53.039726
3003.906250	-53.253662
3005.859375	-52.811310
3007.812500	-53.002602
3009.765625	-53.157715
3011.718750	-53.172882
3013.671875	-53.608547
3015.625000	-54.212933
3017.578125	-53.761574
3019.531250	-54.197140
3021.484375	-54.792477
3023.437500	-54.330292
3025.390625	-54.328907
3027.343750	-54.237175
3029.296875	-54.248974
3031.250000	-54.676346
3033.203125	-54.838623
3035.156250	-54.625046
3037.109375	-54.111351
3039.062500	-54.379864
3041.015625	-54.175964
3042.968750	-54.457722
3044.921875	-55.321156
3046.875000	-54.670647
3048.828125	-54.460888
3050.781250	-54.505070
3052.734375	-54.974747
3054.687500	-55.088936
3056.640625	-54.703979
3058.593750	-55.003529
3060.546875	-54.713600
3062.500000	-54.638527
3064.453125	-54.402374
3066.406250	-54.631527
3068.359375	-55.065426
3070.312500	-55.044701
3072.265625	-54.191139
3074.218750	-54.514366
3076.171875	-53.797241
3078.125000	-54.273891
3080.078125	-54.065998
3082.031250	-53.865673
3083.984375	-54.062222
3085.937500	-54.125389
3087.890625	-54.654182
3089.843750	-53.892483
3091.796875	-53.524212
3093.750000	-53.581867
3095.703125	-53.562450
3097.656250	-53.273193
3099.609375	-52.757568
3101.562500	-52.599346
3103.515625	-52.784191
3105.468750	-52.480347
3107.421875	-52.512726
3109.375000	-52.731121
3111.328125	-52.465244
3113.281250	-51.769176
3115.234375	-51.754242
3117.187500	-52.192253
3119.140625	-51.420181
3121.093750	-51.526215
3123.046875	-51.375584
3125.000000	-50.641579
3126.953125	-50.875057
3128.906250	-51.256664
3130.859375	-50.571243
3132.812500	-50.514404
3134.765625	-50.431000
3136.718750	-49.888489
3138.671875	-49.908298
3140.625000	-49.856979
3142.578125	-49.480614
3144.531250	-49.042820
3146.484375	-48.421841
3148.437500	-47.945553
3150.390625	-48.106491
3152.343750	-48.000233
3154.296875	-47.330429
3156.250000	-46.900166
3158.203125	-46.534058
3160.156250	-46.866943
3162.109375	-46.412399
3164.062500	-46.537285
3166.015625	-45.606152
3167.968750	-45.099247
3169.921875	-44.116009
3171.875000	-43.940136
3173.828125	-44.247223
3175.781250	-43.604927
3177.734375	-42.946671
3179.687500	-42.564102
3181.640625	-42.739452
3183.593750	-41.917213
3185.546875	-41.596416
3187.500000	-41.553177
3189.453125	-41.728920
3191.406250	-41.869808
3193.359375	-42.863003
3195.312500	-42.711258
3197.265625	-42.470707
3199.218750	-42.942627
3201.171875	-42.620625
3203.125000	-43.078793
3205.078125	-43.340321
3207.031250	-43.470097
3208.984375	-43.576813
3210.937500	-44.208561
3212.890625	-45.192329
3214.843750	-45.343475
3216.796875	-45.468948
3218.750000	-45.775066
3220.703125	-46.394855
3222.656250	-46.744114
3224.609375	-47.101028
3226.562500	-47.966145
3228.515625	-48.226665
3230.468750	-47.956146
3232.421875	-47.786530
3234.375000	-48.216671
3236.328125	-48.712761
3238.281250	-49.303497
3240.234375	-48.803043
3242.187500	-48.568771
3244.140625	-49.295662
3246.093750	-50.268715
3248.046875	-50.081875
3250.000000	-49.585590
3251.953125	-49.320892
3253.906250	-49.961288
3255.859375	-50.230732
3257.812500	-51.130196
3259.765625	-51.053753
3261.718750	-51.364460
3263.671875	-51.589344
3265.625000	-51.027390
3267.578125	-51.793343
3269.531250	-51.737316
3271.484375	-51.899704
3273.437500	-52.887676
3275.390625	-52.130360
3277.343750	-51.932243
3279.296875	-51.512398
3281.250000	-51.585247
3283.203125	-52.843697
3285.156250	-52.638668
3287.109375	-52.984180
3289.062500	-52.873333
3291.015625	-53.082115
3292.968750	-53.299702
3294.921875	-53.092133
3296.875000	-53.429844
3298.828125	-53.399677
3300.781250	-53.532612
3302.734375	-53.127449
3304.687500	-53.640839
3306.640625	-54.217983
3308.593750	-53.886780
3310.546875	-53.456203
3312.500000	-53.395458
3314.453125	-54.105770
3316.406250	-53.344807
3318.359375	-53.515804
3320.312500	-53.681007
3322.265625	-53.636009
3324.218750	-53.143894
3326.171875	-53.317696
3328.125000	-53.733150
3330.078125	-53.683315
3332.031250	-53.757915
3333.984375	-54.524857
3335.937500	-53.496002
3337.890625	-53.213497
3339.843750	-52.836563
3341.796875	-53.210922
3343.750000	-53.361416
3345.703125	-53.181892
3347.656250	-53.179585
3349.609375	-53.756523
3351.562500	-53.087063
3353.515625	-52.841156
3355.468750	-52.631413
3357.421875	-52.546562
3359.375000	-53.337318
3361.328125	-53.201550
3363.281250	-52.636154
3365.234375	-52.688663
3367.187500	-52.675423
3369.140625	-51.809776
3371.093750	-52.006817
3373.046875	-52.272366
3375.000000	-52.175617
3376.953125	-51.446373
3378.906250	-51.794407
3380.859375	-51.586475
3382.812500	-51.343197
3384.765625	-50.286610
3386.718750	-50.417061
3388.671875	-51.402893
3390.625000	-51.246082
3392.578125	-51.192352
3394.531250	-51.539402
3396.484375	-50.638138
3398.437500	-50.564362
3400.390625	-50.253307
3402.343750	-49.561699
3404.296875	-49.674557
3406.250000	-49.052395
3408.203125	-48.335991
3410.156250	-47.249241
3412.109375	-48.128490
3414.062500	-49.037861
3416.015625	-48.077290
3417.968750	-47.421989
3419.921875	-47.039574
3421.875000	-46.888443
3423.828125	-46.630802
3425.781250	-46.170815
3427.734375	-45.866829
3429.687500	-45.694897
3431.640625	-44.971699
3433.593750	-44.878983
3435.546875	-44.678471
3437.500000	-43.644558
3439.453125	-43.563129
3441.406250	-43.320164
3443.359375	-43.558865
3445.312500	-43.699150
3447.265625	-43.094963
3449.218750	-42.625977
3451.171875	-42.604591
3453.125000	-43.396488
3455.078125	-42.975407
3457.031250	-41.860405
3458.984375	-41.984295
3460.937500	-42.003731
3462.890625	-42.346489
3464.843750	-42.274921
3466.796875	-42.440292
3468.750000	-42.530651
3470.703125	-43.059292
3472.656250	-43.066990
3474.609375	-43.508720
3476.562500	-44.833336
3478.515625	-44.882015
3480.468750	-44.422234
3482.421875	-45.815002
3484.375000	-45.722843
3486.328125	-45.921425
3488.281250	-45.948673
3490.234375	-46.366516
3492.187500	-46.776184
3494.140625	-47.282314
3496.093750	-47.642403
3498.046875	-47.366356
3500.000000	-47.814159
3501.953125	-48.199215
3503.906250	-48.512066
3505.859375	-49.635704
3507.812500	-49.064034
3509.765625	-49.174965
3511.718750	-49.966904
3513.671875	-50.518116
3515.625000	-50.201096
3517.578125	-50.071465
3519.531250	-50.627743
3521.484375	-50.475033
3523.437500	-50.246700
3525.390625	-50.840008
3527.343750	-50.945564
3529.296875	-51.984978
3531.250000	-52.094902
3533.203125	-51.266285
3535.156250	-50.996300
3537.109375	-51.349712
3539.062500	-52.244328
3541.015625	-52.628597
3542.968750	-52.302113
3544.921875	-51.787205
3546.875000	-52.623734
3548.828125	-52.607121
3550.781250	-52.416172
3552.734375	-52.799374
3554.687500	-53.383045
3556.640625	-53.160366
3558.593750	-53.159546
3560.546875	-53.253529
3562.500000	-52.797035
3564.453125	-53.108437
3566.406250	-52.837414
3568.359375	-53.072937
3570.312500	-53.540199
3572.265625	-53.227722
3574.218750	-53.570477
3576.171875	-53.627270
3578.125000	-53.600685
3580.078125	-53.455940
3582.031250	-53.267948
3583.984375	-54.074932
3585.937500	-54.301941
3587.890625	-53.588600
3589.843750	-53.649471
3591.796875	-53.793018
3593.750000	-53.576714
3595.703125	-53.475113
3597.656250	-53.876587
3599.609375	-53.501984
3601.562500	-53.222946
3603.515625	-53.473087
3605.468750	-54.190773
3607.421875	-53.300777
3609.375000	-52.568596
3611.328125	-52.617126
3613.281250	-53.559277
3615.234375	-53.666309
3617.187500	-54.322742
3619.140625	-54.001019
3621.093750	-52.406330
3623.046875	-52.875690
3625.000000	-52.471725
3626.953125	-52.555088
3628.906250	-53.359409
3630.859375	-53.141727
3632.812500	-53.040310
3634.765625	-52.602993
3636.718750	-52.533558
3638.671875	-52.112309
3640.625000	-51.658199
3642.578125	-51.799362
3644.531250	-51.982891
3646.484375	-52.211597
3648.437500	-52.426102
3650.390625	-52.258217
3652.343750	-51.970535
3654.296875	-51.378685
3656.250000	-51.348907
3658.203125	-51.502476
3660.156250	-51.368107
3662.109375	-51.039307
3664.062500	-50.677212
3666.015625	-50.195858
3667.968750	-50.306438
3669.921875	-50.128075
3671.875000	-49.601807
3673.828125	-49.724129
3675.781250	-49.233788
3677.734375	-48.952629
3679.687500	-49.087357
3681.640625	-48.930946
3683.593750	-48.584469
3685.546875	-48.254875
3687.500000	-47.755455
3689.453125	-47.011646
3691.406250	-46.566162
3693.359375	-45.852497
3695.312500	-46.150604
3697.265625	-45.943031
3699.218750	-45.354919
3701.171875	-45.125450
3703.125000	-44.453915
3705.078125	-43.836502
3707.031250	-44.412182
3708.984375	-45.099537
3710.937500	-44.068325
3712.890625	-44.169220
3714.843750	-44.133625
3716.796875	-43.415165
3718.750000	-42.804211
3720.703125	-42.424416
3722.656250	-42.548649
3724.609375	-42.417667
3726.562500	-42.366795
3728.515625	-42.566486
3730.468750	-42.945908
3732.421875	-42.914600
3734.375000	-43.730415
3736.328125	-44.083649
3738.281250	-44.316963
3740.234375	-45.022316
3742.187500	-45.903687
3744.140625	-45.519360
3746.093750	-45.213814
3748.046875	-45.926521
3750.000000	-46.753044
3751.953125	-46.741112
3753.906250	-46.696159
3755.859375	-47.588665
3757.812500	-48.205009
3759.765625	-48.119781
3761.718750	-48.775745
3763.671875	-48.888748
3765.625000	-49.146500
3767.578125	-49.270817
3769.531250	-49.520134
3771.484375	-49.045242
3773.437500	-49.435432
3775.390625	-51.081875
3777.343750	-50.239525
3779.296875	-49.812534
3781.250000	-50.519680
3783.203125	-50.827278
3785.156250	-50.588993
3787.109375	-51.114944
3789.062500	-51.965740
3791.015625	-51.829502
3792.968750	-51.773861
3794.921875	-51.963161
3796.875000	-52.035255
3798.828125	-52.132298
3800.781250	-52.716831
3802.734375	-52.304123
3804.687500	-52.590912
3806.640625	-53.146271
3808.593750	-53.584969
3810.546875	-53.358734
3812.500000	-53.295883
3814.453125	-52.732784
3816.406250	-52.872772
3818.359375	-53.453976
3820.312500	-53.841869
3822.265625	-54.250153
3824.218750	-54.028759
3826.171875	-53.524101
3828.125000	-53.653439
3830.078125	-53.908562
3832.031250	-53.964298
3833.984375	-53.955528
3835.937500	-53.946499
3837.890625	-54.349548
3839.843750	-53.935078
3841.796875	-54.730831
3843.750000	-54.582691
3845.703125	-53.963955
3847.656250	-54.159294
3849.609375	-54.332249
3851.562500	-54.279293
3853.515625	-53.786060
3855.468750	-53.840836
3857.421875	-54.626102
3859.375000	-54.861027
3861.328125	-54.870899
3863.281250	-54.604641
3865.234375	-54.859299
3867.187500	-54.457195
3869.140625	-55.068642
3871.093750	-54.374401
3873.046875	-53.823238
3875.000000	-54.252197
3876.953125	-54.984608
3878.906250	-54.506466
3880.859375	-54.668736
3882.812500	-53.938419
3884.765625	-53.994011
3886.718750	-53.998947
3888.671875	-53.883553
3890.625000	-53.190033
3892.578125	-53.284492
3894.531250	-53.219143
3896.484375	-53.374584
3898.437500	-54.182838
3900.390625	-53.944859
3902.343750	-53.129303
3904.296875	-53.710884
3906.250000	-54.254059
3908.203125	-53.012493
3910.156250	-52.556229
3912.109375	-52.262299
3914.062500	-52.136547
3916.015625	-51.898781
3917.968750	-51.963558
3919.921875	-52.320461
3921.875000	-52.029942
3923.828125	-51.798523
3925.781250	-51.519344
3927.734375	-51.343460
3929.687500	-50.884556
3931.640625	-50.080952
3933.593750	-50.144184
3935.546875	-50.224045
3937.500000	-49.417877
3939.453125	-49.849785
3941.406250	-49.942593
3943.359375	-49.109085
3945.312500	-49.174046
3947.265625	-49.952595
3949.218750	-48.274189
3951.171875	-47.868362
3953.125000	-48.463451
3955.078125	-47.896851
3957.031250	-47.514534
3958.984375	-47.177830
3960.937500	-47.042183
3962.890625	-47.015060
3964.843750	-46.960091
3966.796875	-46.012688
3968.750000	-45.997799
3970.703125	-45.560646
3972.656250	-44.544956
3974.609375	-44.348850
3976.562500	-44.615063
3978.515625	-44.245014
3980.468750	-43.551365
3982.421875	-43.205486
3984.375000	-43.722244
3986.328125	-43.574432
3988.281250	-43.027763
3990.234375	-43.108536
3992.187500	-43.614315
3994.140625	-43.580555
3996.093750	-43.822803
3998.046875	-44.206654
4000.000000	-44.812805
4001.953125	-44.591232
4003.906250	-44.970341
4005.859375	-44.962662
4007.812500	-45.179096
4009.765625	-45.715332
4011.718750	-46.912968
4013.671875	-46.812447
4015.625000	-46.784420
4017.578125	-47.464005
4019.531250	-47.735561
4021.484375	-48.212776
4023.437500	-48.015896
4025.390625	-48.002110
4027.343750	-48.837696
4029.296875	-49.148548
4031.250000	-48.761852
4033.203125	-49.655350
4035.156250	-50.048607
4037.109375	-50.067303
4039.062500	-50.012917
4041.015625	-50.601509
4042.968750	-51.014416
4044.921875	-51.156746
4046.875000	-51.134575
4048.828125	-51.316368
4050.781250	-52.043304
4052.734375	-52.155247
4054.687500	-52.193966
4056.640625	-52.520203
4058.593750	-52.289360
4060.546875	-52.747303
4062.500000	-52.857399
4064.453125	-52.925285
4066.406250	-52.453213
4068.359375	-52.883839
4070.312500	-52.451836
4072.265625	-52.700001
4074.218750	-53.854626
4076.171875	-53.938332
4078.125000	-53.600750
4080.078125	-53.864395
4082.031250	-54.296394
4083.984375	-53.947803
4085.937500	-54.481110
4087.890625	-54.703205
4089.843750	-54.377796
4091.796875	-55.069420
4093.750000	-54.993076
4095.703125	-55.077572
4097.656250	-54.848206
4099.609375	-54.966679
4101.562500	-55.831326
4103.515625	-54.879749
4105.468750	-54.669605
4107.421875	-54.453648
4109.375000	-54.946869
4111.328125	-54.891850
4113.281250	-55.432949
4115.234375	-55.520935
4117.187500	-55.078354
4119.140625	-54.862976
4121.093750	-54.942780
4123.046875	-54.887821
4125.000000	-55.479065
4126.953125	-55.769150
4128.906250	-55.455070
4130.859375	-55.228786
4132.812500	-54.686970
4134.765625	-54.951462
4136.718750	-55.072914
4138.671875	-54.978218
4140.625000	-55.036694
4142.578125	-54.618778
4144.531250	-54.512623
4146.484375	-54.191196
4148.437500	-55.126778
4150.390625	-54.862461
4152.343750	-54.702972
4154.296875	-54.119762
4156.250000	-53.589409
4158.203125	-54.170151
4160.156250	-54.166218
4162.109375	-54.174030
4164.062500	-53.881088
4166.015625	-53.166115
4167.968750	-53.596504
4169.921875	-54.574566
4171.875000	-54.343590
4173.828125	-53.515911
4175.781250	-52.830376
4177.734375	-52.788208
4179.687500	-53.179226
4181.640625	-52.840313
4183.593750	-52.478912
4185.546875	-53.182972
4187.500000	-52.631622
4189.453125	-52.694923
4191.406250	-51.479893
4193.359375	-50.845291
4195.312500	-51.893929
4197.265625	-51.722023
4199.218750	-50.949242
4201.171875	-51.214794
4203.125000	-50.579220
4205.078125	-50.041988
4207.031250	-49.967724
4208.984375	-49.660732
4210.937500	-50.038090
4212.890625	-49.964973
4214.843750	-49.557880
4216.796875	-48.576565
4218.750000	-48.452232
4220.703125	-48.703320
4222.656250	-47.869347
4224.609375	-47.576782
4226.562500	-47.195515
4228.515625	-46.759537
4230.468750	-47.057480
4232.421875	-46.305096
4234.375000	-45.662178
4236.328125	-45.707397
4238.281250	-45.827225
4240.234375	-45.351261
4242.187500	-44.533100
4244.140625	-43.968624
4246.093750	-44.516468
4248.046875	-44.916389
4250.000000	-43.840214
4251.953125	-43.333664
4253.906250	-43.966156
4255.859375	-44.094936
4257.812500	-44.036652
4259.765625	-43.876102
4261.718750	-43.853588
4263.671875	-44.592560
4265.625000	-45.008884
4267.578125	-45.859634
4269.531250	-45.580620
4271.484375	-45.578144
4273.437500	-46.296585
4275.390625	-47.214725
4277.343750	-46.926926
4279.296875	-47.356773
4281.250000	-47.801376
4283.203125	-48.440517
4285.156250	-48.657093
4287.109375	-48.526588
4289.062500	-48.423069
4291.015625	-49.577332
4292.968750	-49.175781
4294.921875	-48.930016
4296.875000	-49.736847
4298.828125	-50.424641
4300.781250	-49.909054
4302.734375	-49.886333
4304.687500	-50.815617
4306.640625	-51.175758
4308.593750	-51.681137
4310.546875	-52.081612
4312.500000	-52.528522
4314.453125	-52.160961
4316.406250	-51.468685
4318.359375	-51.929604
4320.312500	-52.126247
4322.265625	-53.210175
4324.218750	-53.025246
4326.171875	-52.573326
4328.125000	-52.620026
4330.078125	-52.823902
4332.031250	-52.852951
4333.984375	-53.438419
4335.937500	-53.733513
4337.890625	-53.388268
4339.843750	-53.848225
4341.796875	-54.400089
4343.750000	-54.216381
4345.703125	-55.614895
4347.656250	-54.333923
4349.609375	-53.778633
4351.562500	-54.302055
4353.515625	-54.221283
4355.468750	-55.067047
4357.421875	-55.425209
4359.375000	-54.695148
4361.328125	-54.759647
4363.281250	-54.383743
4365.234375	-54.378063
4367.187500	-55.069630
4369.140625	-54.847569
4371.093750	-54.803730
4373.046875	-55.136074
4375.000000	-54.721043
4376.953125	-54.747776
4378.906250	-55.227482
4380.859375	-55.302361
4382.812500	-55.048470
4384.765625	-55.421688
4386.718750	-55.345932
4388.671875	-54.648037
4390.625000	-54.697731
4392.578125	-55.037369
4394.531250	-54.672222
4396.484375	-54.855999
4398.437500	-54.737923
4400.390625	-55.135109
4402.343750	-55.623997
4404.296875	-55.770733
4406.250000	-54.936214
4408.203125	-54.304340
4410.156250	-54.147663
4412.109375	-55.476173
4414.062500	-55.452209
4416.015625	-54.415649
4417.968750	-54.075062
4419.921875	-53.673111
4421.875000	-54.058411
4423.828125	-53.834015
4425.781250	-54.069653
4427.734375	-54.021233
4429.687500	-53.878033
4431.640625	-54.410530
4433.593750	-53.817204
4435.546875	-52.973763
4437.500000	-53.286182
4439.453125	-53.655029
4441.406250	-53.613098
4443.359375	-53.449932
4445.312500	-52.255157
4447.265625	-52.480957
4449.218750	-52.744392
4451.171875	-52.678799
4453.125000	-52.208618
4455.078125	-52.174648
4457.031250	-52.043682
4458.984375	-51.407318
4460.937500	-51.643684
4462.890625	-51.841003
4464.843750	-50.961346
4466.796875	-50.522816
4468.750000	-50.351833
4470.703125	-50.669109
4472.656250	-50.680420
4474.609375	-50.651733
4476.562500	-50.047779
4478.515625	-49.555439
4480.468750	-50.020679
4482.421875	-49.435825
4484.375000	-48.649876
4486.328125	-48.255585
4488.281250	-47.904045
4490.234375	-47.154922
4492.187500	-47.704933
4494.140625	-47.563175
4496.093750	-46.738052
4498.046875	-46.059685
4500.000000	-46.648598
4501.953125	-46.224247
4503.906250	-45.496964
4505.859375	-45.796879
4507.812500	-45.227856
4509.765625	-44.760193
4511.718750	-44.117874
4513.671875	-44.778812
4515.625000	-45.172272
4517.578125	-45.407192
4519.531250	-45.316536
4521.484375	-45.581299
4523.437500	-45.281540
4525.390625	-45.374722
4527.343750	-45.623478
4529.296875	-45.277798
4531.250000	-45.553909
4533.203125	-46.150604
4535.156250	-45.894516
4537.109375	-46.285378
4539.062500	-46.176636
4541.015625	-46.750248
4542.968750	-47.052002
4544.921875	-47.890987
4546.875000	-48.182491
4548.828125	-48.470249
4550.781250	-48.740032
4552.734375	-48.728981
4554.687500	-48.727417
4556.640625	-48.939026
4558.593750	-49.547947
4560.546875	-49.625690
4562.500000	-49.926064
4564.453125	-50.729126
4566.406250	-50.815086
4568.359375	-50.546867
4570.312500	-50.269306
4572.265625	-51.341770
4574.218750	-51.999546
4576.171875	-51.955761
4578.125000	-52.670761
4580.078125	-52.430901
4582.031250	-52.844376
4583.984375	-52.518219
4585.937500	-52.255802
4587.890625	-52.968781
4589.843750	-53.506931
4591.796875	-52.780991
4593.750000	-52.754677
4595.703125	-52.691608
4597.656250	-52.941536
4599.609375	-53.680874
4601.562500	-53.448414
4603.515625	-54.066776
4605.468750	-53.934246
4607.421875	-54.280590
4609.375000	-53.990334
4611.328125	-54.465336
4613.281250	-54.165180
4615.234375	-54.162292
4617.187500	-54.549759
4619.140625	-54.248428
4621.093750	-53.785496
4623.046875	-54.038033
4625.000000	-54.776005
4626.953125	-54.866524
4628.906250	-54.316948
4630.859375	-55.087669
4632.812500	-55.159348
4634.765625	-54.868931
4636.718750	-55.290283
4638.671875	-54.686230
4640.625000	-54.823872
4642.578125	-54.557205
4644.531250	-54.330555
4646.484375	-54.643616
4648.437500	-54.815777
4650.390625	-54.525131
4652.343750	-53.926563
4654.296875	-54.241196
4656.250000	-54.709190
4658.203125	-54.817585
4660.156250	-55.244286
4662.109375	-55.058327
4664.062500	-55.206741
4666.015625	-54.358566
4667.968750	-55.011978
4669.921875	-55.640854
4671.875000	-55.453289
4673.828125	-54.470211
4675.781250	-54.213882
4677.734375	-54.110123
4679.687500	-54.205681
4681.640625	-54.387993
4683.593750	-54.803528
4685.546875	-53.988937
4687.500000	-53.741779
4689.453125	-53.562836
4691.406250	-53.514297
4693.359375	-53.799038
4695.312500	-53.950378
4697.265625	-53.256901
4699.218750	-53.143303
4701.171875	-53.454624
4703.125000	-53.165020
4705.078125	-52.460854
4707.031250	-52.394863
4708.984375	-52.733719
4710.937500	-52.609631
4712.890625	-52.878418
4714.843750	-51.838943
4716.796875	-51.079193
4718.750000	-52.081917
4720.703125	-52.814404
4722.656250	-52.568108
4724.609375	-51.609509
4726.562500	-51.200516
4728.515625	-50.909878
4730.468750	-51.141842
4732.421875	-50.171879
4734.375000	-50.116470
4736.328125	-49.722607
4738.281250	-49.167088
4740.234375	-49.421822
4742.187500	-49.185127
4744.140625	-49.922398
4746.093750	-48.650188
4748.046875	-47.658710
4750.000000	-47.300625
4751.953125	-47.848221
4753.906250	-47.755707
4755.859375	-47.818031
4757.812500	-47.485245
4759.765625	-47.487240
4761.718750	-47.175762
4763.671875	-46.890259
4765.625000	-45.858368
4767.578125	-45.437382
4769.531250	-45.286743
4771.484375	-45.519421
4773.437500	-45.620068
4775.390625	-45.101116
4777.343750	-44.519253
4779.296875	-44.050560
4781.250000	-45.075066
4783.203125	-45.515797
4785.156250	-45.670937
4787.109375	-45.192318
4789.062500	-45.666641
4791.015625	-46.069977
4792.968750	-45.750908
4794.921875	-45.472996
4796.875000	-45.722145
4798.828125	-45.788906
4800.781250	-46.235527
4802.734375	-46.978413
4804.687500	-47.711643
4806.640625	-46.923508
4808.593750	-46.926933
4810.546875	-47.574905
4812.500000	-47.958984
4814.453125	-48.370289
4816.406250	-49.043301
4818.359375	-48.996754
4820.312500	-48.989563
4822.265625	-49.246288
4824.218750	-49.694935
4826.171875	-49.865726
4828.125000	-50.082256
4830.078125	-50.141678
4832.031250	-50.461414
4833.984375	-50.212608
4835.937500	-50.409576
4837.890625	-50.553974
4839.843750	-50.946331
4841.796875	-51.416412
4843.750000	-51.949955
4845.703125	-52.331276
4847.656250	-51.648811
4849.609375	-51.379280
4851.562500	-51.621613
4853.515625	-51.767258
4855.468750	-51.735977
4857.421875	-52.034027
4859.375000	-51.454063
4861.328125	-52.364975
4863.281250	-53.458572
4865.234375	-53.197884
4867.187500	-53.299046
4869.140625	-52.741348
4871.093750	-52.817501
4873.046875	-53.300495
4875.000000	-53.561756
4876.953125	-53.172421
4878.906250	-52.842388
4880.859375	-53.397293
4882.812500	-54.179661
4884.765625	-53.615139
4886.718750	-53.489166
4888.671875	-53.685833
4890.625000	-53.883778
4892.578125	-53.726665
4894.531250	-54.387051
4896.484375	-54.355309
4898.437500	-53.732685
4900.390625	-53.961002
4902.343750	-53.635250
4904.296875	-53.566189
4906.250000	-53.913063
4908.203125	-54.051968
4910.156250	-54.340107
4912.109375	-54.068405
4914.062500	-54.040554
4916.015625	-54.283535
4917.968750	-54.226334
4919.921875	-54.090305
4921.875000	-54.306957
4923.828125	-54.091824
4925.781250	-53.992413
4927.734375	-53.788406
4929.687500	-53.800091
4931.640625	-53.871086
4933.593750	-53.469185
4935.546875	-53.922451
4937.500000	-54.239326
4939.453125	-53.558399
4941.406250	-53.399376
4943.359375	-53.504173
4945.312500	-53.307365
4947.265625	-53.067554
4949.218750	-52.908043
4951.171875	-52.948071
4953.125000	-52.625629
4955.078125	-52.679054
4957.031250	-52.353451
4958.984375	-52.410236
4960.937500	-53.149555
4962.890625	-52.735119
4964.843750	-52.391026
4966.796875	-52.097382
4968.750000	-51.884075
4970.703125	-52.099403
4972.656250	-51.581135
4974.609375	-51.723351
4976.562500	-52.142097
4978.515625	-51.738297
4980.468750	-51.174904
4982.421875	-51.337109
4984.375000	-50.987301
4986.328125	-50.362297
4988.281250	-49.696712
4990.234375	-49.250694
4992.187500	-50.024403
4994.140625	-50.651123
4996.093750	-49.873409
4998.046875	-49.029819
5000.000000	-49.112728
5001.953125	-48.544727
5003.906250	-49.076599
5005.859375	-48.893192
5007.812500	-48.233910
5009.765625	-48.267307
5011.718750	-47.606956
5013.671875	-47.381039
5015.625000	-47.103016
5017.578125	-47.068321
5019.531250	-46.641033
5021.484375	-47.219109
5023.437500	-46.966404
5025.390625	-46.745422
5027.343750	-46.786385
5029.296875	-46.259624
5031.250000	-46.332745
5033.203125	-44.793026
5035.156250	-44.584129
5037.109375	-45.241390
5039.062500	-44.847084
5041.015625	-44.587196
5042.968750	-44.673378
5044.921875	-44.519905
5046.875000	-44.980511
5048.828125	-45.184845
5050.781250	-45.148144
5052.734375	-44.762505
5054.687500	-45.074345
5056.640625	-45.316849
5058.593750	-45.322273
5060.546875	-45.533073
5062.500000	-46.112141
5064.453125	-46.457550
5066.406250	-46.441093
5068.359375	-46.679790
5070.312500	-46.879726
5072.265625	-47.301071
5074.218750	-47.206921
5076.171875	-47.711143
5078.125000	-47.903301
5080.078125	-47.615135
5082.031250	-48.818035
5083.984375	-48.709187
5085.937500	-48.314438
5087.890625	-48.487057
5089.843750	-48.908783
5091.796875	-49.016838
5093.750000	-49.117462
5095.703125	-50.063984
5097.656250	-50.527100
5099.609375	-50.490982
5101.562500	-50.420162
5103.515625	-49.856834
5105.468750	-50.590652
5107.421875	-50.990505
5109.375000	-50.517452
5111.328125	-50.133606
5113.281250	-50.643627
5115.234375	-51.312160
5117.187500	-51.412472
5119.140625	-51.404137
5121.093750	-51.813892
5123.046875	-51.675110
5125.000000	-51.994259
5126.953125	-52.584084
5128.906250	-52.371666
5130.859375	-52.503479
5132.812500	-52.317528
5134.765625	-52.084568
5136.718750	-52.102722
5138.671875	-52.070789
5140.625000	-52.418724
5142.578125	-52.762684
5144.531250	-53.066082
5146.484375	-52.604168
5148.437500	-52.577503
5150.390625	-52.844040
5152.343750	-52.984600
5154.296875	-52.761806
5156.250000	-52.399540
5158.203125	-53.167912
5160.156250	-53.124489
5162.109375	-52.102543
5164.062500	-51.946003
5166.015625	-52.064949
5167.968750	-52.148598
5169.921875	-52.838589
5171.875000	-52.693310
5173.828125	-52.844402
5175.781250	-53.541016
5177.734375	-53.357605
5179.687500	-52.972015
5181.640625	-52.994007
5183.593750	-53.053177
5185.546875	-52.156151
5187.500000	-52.136444
5189.453125	-52.500809
5191.406250	-52.117935
5193.359375	-52.546585
5195.312500	-52.694775
5197.265625	-52.412380
5199.218750	-51.690193
5201.171875	-51.647995
5203.125000	-52.394321
5205.078125	-51.885151
5207.031250	-51.572121
5208.984375	-51.506344
5210.937500	-51.820518
5212.890625	-52.249088
5214.843750	-51.793137
5216.796875	-52.077579
5218.750000	-51.824753
5220.703125	-50.966183
5222.656250	-50.724190
5224.609375	-50.611614
5226.562500	-50.599884
5228.515625	-50.673958
5230.468750	-51.298939
5232.421875	-50.936913
5234.375000	-50.081944
5236.328125	-49.501926
5238.281250	-50.079594
5240.234375	-49.999462
5242.187500	-49.866417
5244.140625	-50.189430
5246.093750	-49.834396
5248.046875	-49.754711
5250.000000	-49.730392
5251.953125	-49.551044
5253.906250	-49.084148
5255.859375	-48.589260
5257.812500	-48.086445
5259.765625	-48.094013
5261.718750	-48.056156
5263.671875	-48.159405
5265.625000	-47.865250
5267.578125	-46.831963
5269.531250	-47.107025
5271.484375	-46.750095
5273.437500	-47.140293
5275.390625	-46.619846
5277.343750	-46.862942
5279.296875	-46.719662
5281.250000	-46.084686
5283.203125	-46.088978
5285.156250	-45.514172
5287.109375	-45.098778
5289.062500	-44.987690
5291.015625	-44.823097
5292.968750	-44.750378
5294.921875	-44.917187
5296.875000	-44.565212
5298.828125	-44.877228
5300.781250	-44.868145
5302.734375	-44.433407
5304.687500	-44.804043
5306.640625	-44.712383
5308.593750	-44.397663
5310.546875	-44.065285
5312.500000	-45.210567
5314.453125	-45.387363
5316.406250	-45.106117
5318.359375	-45.326298
5320.312500	-45.137253
5322.265625	-44.860249
5324.218750	-45.107002
5326.171875	-44.825287
5328.125000	-45.057098
5330.078125	-45.904011
5332.031250	-46.364666
5333.984375	-46.882896
5335.937500	-46.072815
5337.890625	-46.353485
5339.843750	-47.012592
5341.796875	-47.242008
5343.750000	-47.243431
5345.703125	-47.982307
5347.656250	-48.027931
5349.609375	-47.559994
5351.562500	-47.383568
5353.515625	-47.616974
5355.468750	-47.938770
5357.421875	-48.314465
5359.375000	-48.091492
5361.328125	-48.256134
5363.281250	-48.209595
5365.234375	-48.464764
5367.187500	-49.024754
5369.140625	-49.043365
5371.093750	-48.957745
5373.046875	-49.919960
5375.000000	-49.502960
5376.953125	-49.202236
5378.906250	-49.324783
5380.859375	-48.982750
5382.812500	-49.535549
5384.765625	-49.715000
5386.718750	-50.117546
5388.671875	-50.488106
5390.625000	-50.252495
5392.578125	-50.198570
5394.531250	-50.383583
5396.484375	-50.227016
5398.437500	-50.405483
5400.390625	-50.213840
5402.343750	-50.713993
5404.296875	-50.748104
5406.250000	-50.450329
5408.203125	-50.651333
5410.156250	-50.611031
5412.109375	-50.264790
5414.062500	-50.379517
5416.015625	-50.582127
5417.968750	-50.858383
5419.921875	-51.246349
5421.875000	-51.209240
5423.828125	-50.839409
5425.781250	-50.532059
5427.734375	-51.098328
5429.687500	-51.502651
5431.640625	-51.191158
5433.593750	-51.251457
5435.546875	-51.122250
5437.500000	-50.902866
5439.453125	-50.776398
5441.406250	-50.151924
5443.359375	-50.476681
5445.312500	-50.267746
5447.265625	-50.565472
5449.218750	-50.430004
5451.171875	-50.574509
5453.125000	-51.017235
5455.078125	-51.200966
5457.031250	-50.285362
5458.984375	-50.688629
5460.937500	-50.455036
5462.890625	-50.021893
5464.843750	-50.500938
5466.796875	-49.954380
5468.750000	-49.814289
5470.703125	-49.721088
5472.656250	-49.629040
5474.609375	-49.536678
5476.562500	-49.375183
5478.515625	-49.152069
5480.468750	-49.141304
5482.421875	-49.057438
5484.375000	-48.775940
5486.328125	-49.153866
5488.281250	-49.585434
5490.234375	-49.307808
5492.187500	-48.521584
5494.140625	-48.618954
5496.093750	-48.938362
5498.046875	-47.931725
5500.000000	-48.063419
5501.953125	-48.236431
5503.906250	-48.595989
5505.859375	-48.091362
5507.812500	-48.063587
5509.765625	-47.928082
5511.718750	-47.612251
5513.671875	-47.833195
5515.625000	-46.659111
5517.578125	-47.170956
5519.531250	-47.144604
5521.484375	-46.874660
5523.437500	-46.074268
5525.390625	-45.719597
5527.343750	-45.991848
5529.296875	-46.534149
5531.250000	-46.968410
5533.203125	-46.406639
5535.156250	-45.917057
5537.109375	-46.054462
5539.062500	-45.505894
5541.015625	-45.454597
5542.968750	-45.648129
5544.921875	-45.717796
5546.875000	-45.871300
5548.828125	-45.080414
5550.781250	-44.811272
5552.734375	-45.199841
5554.687500	-44.933144
5556.640625	-44.991123
5558.593750	-44.712616
5560.546875	-45.324463
5562.500000	-45.314823
5564.453125	-44.740562
5566.406250	-44.815941
5568.359375	-45.016792
5570.312500	-45.442673
5572.265625	-44.989571
5574.218750	-44.654991
5576.171875	-45.296043
5578.125000	-45.532223
5580.078125	-45.185814
5582.031250	-45.384823
5583.984375	-45.287098
5585.937500	-45.156902
5587.890625	-45.528351
5589.843750	-45.755077
5591.796875	-45.337627
5593.750000	-45.469734
5595.703125	-45.572418
5597.656250	-46.038235
5599.609375	-45.713795
5601.562500	-45.710194
5603.515625	-47.207806
5605.468750	-46.615578
5607.421875	-46.243649
5609.375000	-45.601875
5611.328125	-46.447598
5613.281250	-46.141712
5615.234375	-45.466484
5617.187500	-46.916725
5619.140625	-47.088749
5621.093750	-47.146706
5623.046875	-46.994179
5625.000000	-47.007301
5626.953125	-46.932919
5628.906250	-47.242004
5630.859375	-47.733173
5632.812500	-48.370491
5634.765625	-47.748363
5636.718750	-47.880188
5638.671875	-47.946884
5640.625000	-47.175270
5642.578125	-47.040894
5644.531250	-47.147182
5646.484375	-47.870277
5648.437500	-48.332504
5650.390625	-48.105961
5652.343750	-47.372124
5654.296875	-47.724678
5656.250000	-47.829262
5658.203125	-47.558426
5660.156250	-47.786400
5662.109375	-48.564285
5664.062500	-48.608971
5666.015625	-48.429054
5667.968750	-48.396603
5669.921875	-48.330204
5671.875000	-49.160648
5673.828125	-48.885376
5675.781250	-48.440338
5677.734375	-48.589436
5679.687500	-48.792950
5681.640625	-48.643265
5683.593750	-48.291485
5685.546875	-48.229321
5687.500000	-48.395817
5689.453125	-48.716286
5691.406250	-48.250267
5693.359375	-48.682240
5695.312500	-48.196262
5697.265625	-48.586548
5699.218750	-47.952629
5701.171875	-48.016914
5703.125000	-48.482426
5705.078125	-49.143520
5707.031250	-48.786514
5708.984375	-47.903755
5710.937500	-48.088722
5712.890625	-48.187622
5714.843750	-47.704697
5716.796875	-47.601608
5718.750000	-48.273445
5720.703125	-48.562782
5722.656250	-47.700291
5724.609375	-47.456791
5726.562500	-47.761967
5728.515625	-48.483295
5730.468750	-47.923286
5732.421875	-47.661510
5734.375000	-48.507305
5736.328125	-48.367882
5738.281250	-48.186829
5740.234375	-47.676987
5742.187500	-47.349506
5744.140625	-47.178490
5746.093750	-47.505680
5748.046875	-47.192394
5750.000000	-47.047592
5751.953125	-47.752853
5753.906250	-47.922245
5755.859375	-46.945431
5757.812500	-47.048119
5759.765625	-47.374767
5761.718750	-47.017239
5763.671875	-47.432510
5765.625000	-47.624821
5767.578125	-47.534271
5769.531250	-47.208084
5771.484375	-48.017258
5773.437500	-47.948002
5775.390625	-47.640015
5777.343750	-47.395054
5779.296875	-47.485828
5781.250000	-47.535900
5783.203125	-46.086250
5785.156250	-45.867226
5787.109375	-46.444561
5789.062500	-46.662018
5791.015625	-46.790802
5792.968750	-46.677456
5794.921875	-46.836170
5796.875000	-46.924198
5798.828125	-46.558243
5800.781250	-46.484150
5802.734375	-46.394901
5804.687500	-46.794903
5806.640625	-46.635384
5808.593750	-46.611206
5810.546875	-46.527241
5812.500000	-46.607407
5814.453125	-46.308216
5816.406250	-46.379211
5818.359375	-45.729218
5820.312500	-46.516254
5822.265625	-47.242996
5824.218750	-46.109848
5826.171875	-45.995049
5828.125000	-46.294643
5830.078125	-45.951740
5832.031250	-45.862988
5833.984375	-46.177113
5835.937500	-46.891094
5837.890625	-45.841721
5839.843750	-45.724274
5841.796875	-46.193043
5843.750000	-45.352871
5845.703125	-45.832840
5847.656250	-46.171181
5849.609375	-46.112896
5851.562500	-46.632801
5853.515625	-45.789864
5855.468750	-45.903767
5857.421875	-46.624401
5859.375000	-46.208805
5861.328125	-46.274960
5863.281250	-45.834911
5865.234375	-45.724312
5867.187500	-45.994915
5869.140625	-46.133545
5871.093750	-46.658066
5873.046875	-47.156258
5875.000000	-46.396896
5876.953125	-46.059738
5878.906250	-45.713230
5880.859375	-46.067135
5882.812500	-46.333847
5884.765625	-46.116253
5886.718750	-46.088085
5888.671875	-46.017208
5890.625000	-46.188965
5892.578125	-46.123230
5894.531250	-46.507343
5896.484375	-46.465500
5898.437500	-46.773705
5900.390625	-46.211124
5902.343750	-46.587910
5904.296875	-46.412289
5906.250000	-46.449284
5908.203125	-46.589230
5910.156250	-46.698498
5912.109375	-46.271507
5914.062500	-46.172894
5916.015625	-46.684109
5917.968750	-46.015396
5919.921875	-45.372128
5921.875000	-46.236732
5923.828125	-46.871124
5925.781250	-46.996780
5927.734375	-47.131493
5929.687500	-47.336163
5931.640625	-46.903751
5933.593750	-46.705776
5935.546875	-47.114433
5937.500000	-46.784439
5939.453125	-46.160786
5941.406250	-46.071835
5943.359375	-46.637012
5945.312500	-46.596516
5947.265625	-46.818420
5949.218750	-46.843487
5951.171875	-47.014450
5953.125000	-47.090740
5955.078125	-47.008949
5957.031250	-47.096256
5958.984375	-47.637150
5960.937500	-46.994720
5962.890625	-47.636494
5964.843750	-48.122307
5966.796875	-47.449955
5968.750000	-48.011425
5970.703125	-48.107227
5972.656250	-47.715809
5974.609375	-48.000134
5976.562500	-48.267078
5978.515625	-48.302753
5980.468750	-48.871437
5982.421875	-48.133923
5984.375000	-48.033474
5986.328125	-48.333775
5988.281250	-48.525833
5990.234375	-48.689484
5992.187500	-48.802322
5994.140625	-49.013325
5996.093750	-48.800690
5998.046875	-49.750938
6000.000000	-49.640873
6001.953125	-48.713982
6003.906250	-48.973068
6005.859375	-49.341812
6007.812500	-48.789707
6009.765625	-48.941727
6011.718750	-49.327961
6013.671875	-49.343819
6015.625000	-48.881927
6017.578125	-49.578148
6019.531250	-48.976917
6021.484375	-49.003696
6023.437500	-49.541183
6025.390625	-49.708057
6027.343750	-49.734196
6029.296875	-49.676521
6031.250000	-49.700710
6033.203125	-49.243320
6035.156250	-49.387608
6037.109375	-49.981281
6039.062500	-50.136253
6041.015625	-49.111633
6042.968750	-48.808395
6044.921875	-49.393055
6046.875000	-49.369389
6048.828125	-49.312138
6050.781250	-49.136387
6052.734375	-49.586288
6054.687500	-49.638866
6056.640625	-49.526264
6058.593750	-49.406803
6060.546875	-48.953400
6062.500000	-49.164463
6064.453125	-48.873863
6066.406250	-48.963894
6068.359375	-49.234554
6070.312500	-49.148457
6072.265625	-49.625576
6074.218750	-49.387474
6076.171875	-49.608898
6078.125000	-48.926708
6080.078125	-49.060390
6082.031250	-48.719219
6083.984375	-48.252045
6085.937500	-48.842365
6087.890625	-48.572380
6089.843750	-48.697243
6091.796875	-49.308430
6093.750000	-49.216503
6095.703125	-48.589096
6097.656250	-48.338810
6099.609375	-49.317963
6101.562500	-48.984138
6103.515625	-48.328690
6105.468750	-48.534302
6107.421875	-48.182484
6109.375000	-48.087498
6111.328125	-47.821888
6113.281250	-48.152451
6115.234375	-48.144226
6117.187500	-47.010651
6119.140625	-47.410343
6121.093750	-47.437874
6123.046875	-46.913486
6125.000000	-47.719055
6126.953125	-47.374756
6128.906250	-47.141479
6130.859375	-47.080608
6132.812500	-47.637188
6134.765625	-47.574158
6136.718750	-47.228165
6138.671875	-47.300915
6140.625000	-47.342804
6142.578125	-47.055546
6144.531250	-46.656754
6146.484375	-46.491993
6148.437500	-46.521358
6150.390625	-46.465698
6152.343750	-46.935772
6154.296875	-47.015305
6156.250000	-47.154064
6158.203125	-47.000492
6160.156250	-46.893532
6162.109375	-46.289822
6164.062500	-46.779202
6166.015625	-46.881138
6167.968750	-46.228863
6169.921875	-46.453941
6171.875000	-47.453316
6173.828125	-46.629803
6175.781250	-46.528629
6177.734375	-46.301308
6179.687500	-46.945824
6181.640625	-47.294453
6183.593750	-47.778030
6185.546875	-47.451176
6187.500000	-47.326626
6189.453125	-47.711517
6191.406250	-47.647011
6193.359375	-47.596573
6195.312500	-47.675476
6197.265625	-47.995171
6199.218750	-48.219639
6201.171875	-48.595959
6203.125000	-48.694431
6205.078125	-49.065544
6207.031250	-48.769398
6208.984375	-49.424313
6210.937500	-49.680286
6212.890625	-49.616150
6214.843750	-49.884323
6216.796875	-50.276142
6218.750000	-50.717667
6220.703125	-50.252190
6222.656250	-50.279480
6224.609375	-51.190472
6226.562500	-50.893784
6228.515625	-50.562153
6230.468750	-50.746380
6232.421875	-51.375938
6234.375000	-51.030300
6236.328125	-50.800232
6238.281250	-51.474930
6240.234375	-50.728188
6242.187500	-51.256321
6244.140625	-51.594841
6246.093750	-51.867294
6248.046875	-52.182156
6250.000000	-52.177853
6251.953125	-53.283653
6253.906250	-52.301338
6255.859375	-52.442341
6257.812500	-52.895481
6259.765625	-52.083805
6261.718750	-52.542583
6263.671875	-52.794231
6265.625000	-52.683727
6267.578125	-52.142345
6269.531250	-52.397343
6271.484375	-52.710007
6273.437500	-52.772118
6275.390625	-52.468754
6277.343750	-52.729546
6279.296875	-53.192699
6281.250000	-53.810535
6283.203125	-53.515453
6285.156250	-53.639679
6287.109375	-53.751881
6289.062500	-53.603310
6291.015625	-53.838837
6292.968750	-53.829247
6294.921875	-53.799728
6296.875000	-53.246922
6298.828125	-53.133224
6300.781250	-53.087872
6302.734375	-53.713329
6304.687500	-53.138786
6306.640625	-53.296997
6308.593750	-53.929806
6310.546875	-53.818642
6312.500000	-53.745762
6314.453125	-55.168491
6316.406250	-54.546364
6318.359375	-54.736477
6320.312500	-55.260597
6322.265625	-54.294292
6324.218750	-54.060421
6326.171875	-55.027790
6328.125000	-54.511524
6330.078125	-53.371262
6332.031250	-52.900806
6333.984375	-53.398853
6335.937500	-53.458786
6337.890625	-52.734463
6339.843750	-52.674641
6341.796875	-53.391136
6343.750000	-53.650978
6345.703125	-53.197735
6347.656250	-52.937984
6349.609375	-52.587368
6351.562500	-53.817204
6353.515625	-53.765072
6355.468750	-53.124111
6357.421875	-52.636009
6359.375000	-52.394299
6361.328125	-52.731304
6363.281250	-52.382904
6365.234375	-52.801357
6367.187500	-52.897537
6369.140625	-52.933292
6371.093750	-52.170250
6373.046875	-52.515884
6375.000000	-51.977821
6376.953125	-51.204651
6378.906250	-51.309418
6380.859375	-51.414749
6382.812500	-51.227779
6384.765625	-51.567410
6386.718750	-51.023926
6388.671875	-51.225182
6390.625000	-51.215488
6392.578125	-50.853039
6394.531250	-50.567242
6396.484375	-50.538906
6398.437500	-50.468761
6400.390625	-49.959816
6402.343750	-49.548782
6404.296875	-49.793198
6406.250000	-49.969673
6408.203125	-50.331787
6410.156250	-50.660713
6412.109375	-49.495338
6414.062500	-48.998573
6416.015625	-49.331875
6417.968750	-49.153122
6419.921875	-49.299656
6421.875000	-49.741383
6423.828125	-49.350525
6425.781250	-49.822983
6427.734375	-49.541836
6429.687500	-49.814938
6431.640625	-49.563934
6433.593750	-49.699165
6435.546875	-49.820435
6437.500000	-49.376095
6439.453125	-49.631725
6441.406250	-50.038418
6443.359375	-50.082737
6445.312500	-50.427170
6447.265625	-50.767773
6449.218750	-51.980156
6451.171875	-52.054680
6453.125000	-52.328228
6455.078125	-52.549717
6457.031250	-52.784649
6458.984375	-51.728424
6460.937500	-52.288479
6462.890625	-53.085060
6464.843750	-52.407627
6466.796875	-52.186169
6468.750000	-52.526371
6470.703125	-52.713123
6472.656250	-53.090775
6474.609375	-53.899254
6476.562500	-54.489250
6478.515625	-54.077194
6480.468750	-53.879848
6482.421875	-54.394707
6484.375000	-54.737648
6486.328125	-55.198246
6488.281250	-54.763683
6490.234375	-54.759762
6492.187500	-55.126976
6494.140625	-55.442204
6496.093750	-56.224369
6498.046875	-55.271267
6500.000000	-55.299644
6501.953125	-56.232887
6503.906250	-56.679482
6505.859375	-56.802109
6507.812500	-56.601109
6509.765625	-56.459560
6511.718750	-56.642956
6513.671875	-57.338879
6515.625000	-57.584373
6517.578125	-57.539253
6519.531250	-58.039516
6521.484375	-57.330292
6523.437500	-56.825893
6525.390625	-57.569218
6527.343750	-57.782913
6529.296875	-57.737282
6531.250000	-57.993084
6533.203125	-58.470787
6535.156250	-58.633015
6537.109375	-58.704395
6539.062500	-57.906311
6541.015625	-58.303749
6542.968750	-59.591484
6544.921875	-59.409981
6546.875000	-58.727066
6548.828125	-58.229702
6550.781250	-59.092941
6552.734375	-58.962807
6554.687500	-58.998558
6556.640625	-59.724216
6558.593750	-59.671268
6560.546875	-59.351372
6562.500000	-59.199284
6564.453125	-59.623844
6566.406250	-58.903389
6568.359375	-59.143230
6570.312500	-59.342457
6572.265625	-59.190296
6574.218750	-59.479126
6576.171875	-59.642204
6578.125000	-59.238167
6580.078125	-58.979053
6582.031250	-59.545013
6583.984375	-59.104935
6585.937500	-58.624985
6587.890625	-59.301666
6589.843750	-58.872715
6591.796875	-58.720470
6593.750000	-58.559975
6595.703125	-58.621799
6597.656250	-58.684650
6599.609375	-58.921638
6601.562500	-59.295269
6603.515625	-59.240368
6605.468750	-58.394161
6607.421875	-58.432735
6609.375000	-58.507759
6611.328125	-58.147617
6613.281250	-58.165722
6615.234375	-57.987316
6617.187500	-58.494385
6619.140625	-58.341442
6621.093750	-57.808941
6623.046875	-57.883904
6625.000000	-57.632744
6626.953125	-57.471428
6628.906250	-57.387482
6630.859375	-57.494076
6632.812500	-57.091888
6634.765625	-56.656590
6636.718750	-56.617203
6638.671875	-56.713078
6640.625000	-56.843651
6642.578125	-56.739452
6644.531250	-56.200710
6646.484375	-55.795914
6648.437500	-55.320824
6650.390625	-55.167465
6652.343750	-54.914551
6654.296875	-55.420528
6656.250000	-55.270939
6658.203125	-54.994431
6660.156250	-55.081524
6662.109375	-55.078629
6664.062500	-55.303509
6666.015625	-55.573231
6667.968750	-55.190853
6669.921875	-54.514084
6671.875000	-54.641628
6673.828125	-55.213886
6675.781250	-54.768761
6677.734375	-53.801777
6679.687500	-53.668224
6681.640625	-53.919193
6683.593750	-53.892120
6685.546875	-54.424610
6687.500000	-53.447308
6689.453125	-53.766186
6691.406250	-54.769058
6693.359375	-54.510548
6695.312500	-54.718285
6697.265625	-54.936424
6699.218750	-55.188564
6701.171875	-55.147717
6703.125000	-55.587746
6705.078125	-55.181423
6707.031250	-55.807632
6708.984375	-55.724548
6710.937500	-56.139393
6712.890625	-56.672165
6714.843750	-57.027637
6716.796875	-56.932472
6718.750000	-57.511707
6720.703125	-58.151814
6722.656250	-58.305420
6724.609375	-58.232662
6726.562500	-58.050247
6728.515625	-58.532425
6730.468750	-58.964725
6732.421875	-59.416599
6734.375000	-59.760632
6736.328125	-59.537621
6738.281250	-59.600487
6740.234375	-60.468319
6742.187500	-60.065086
6744.140625	-60.067135
6746.093750	-60.624825
6748.046875	-61.130997
6750.000000	-61.265999
6751.953125	-61.676155
6753.906250	-61.569561
6755.859375	-61.474815
6757.812500	-62.345650
6759.765625	-62.423275
6761.718750	-62.442772
6763.671875	-62.689945
6765.625000	-62.281170
6767.578125	-62.408279
6769.531250	-62.801807
6771.484375	-63.293072
6773.437500	-63.758617
6775.390625	-63.810791
6777.343750	-63.336689
6779.296875	-63.955917
6781.250000	-64.793457
6783.203125	-64.245613
6785.156250	-64.229507
6787.109375	-64.956963
6789.062500	-64.531502
6791.015625	-64.156471
6792.968750	-65.023865
6794.921875	-64.275017
6796.875000	-64.023712
6798.828125	-64.548569
6800.781250	-64.892960
6802.734375	-64.681267
6804.687500	-64.997406
6806.640625	-65.275314
6808.593750	-65.008286
6810.546875	-64.760620
6812.500000	-65.295143
6814.453125	-65.733292
6816.406250	-65.267120
6818.359375	-65.120300
6820.312500	-64.986923
6822.265625	-65.309128
6824.218750	-65.687828
6826.171875	-65.232452
6828.125000	-65.762299
6830.078125	-65.525215
6832.031250	-65.373100
6833.984375	-65.811081
6835.937500	-65.212257
6837.890625	-65.843643
6839.843750	-66.427658
6841.796875	-65.725685
6843.750000	-66.323174
6845.703125	-66.793655
6847.656250	-66.145142
6849.609375	-65.844460
6851.562500	-65.861122
6853.515625	-66.178986
6855.468750	-65.860596
6857.421875	-65.897217
6859.375000	-65.453674
6861.328125	-64.978256
6863.281250	-65.463646
6865.234375	-65.329155
6867.187500	-65.490608
6869.140625	-65.782082
6871.093750	-66.363556
6873.046875	-65.421951
6875.000000	-65.406754
6876.953125	-65.615814
6878.906250	-64.593246
6880.859375	-63.978321
6882.812500	-64.251732
6884.765625	-64.658302
6886.718750	-65.117294
6888.671875	-64.396263
6890.625000	-64.388885
6892.578125	-64.612595
6894.531250	-64.734650
6896.484375	-64.482445
6898.437500	-63.901878
6900.390625	-63.239723
6902.343750	-63.302101
6904.296875	-63.014896
6906.250000	-63.001396
6908.203125	-62.960682
6910.156250	-62.721489
6912.109375	-63.227654
6914.062500	-62.792721
6916.015625	-62.520340
6917.968750	-62.594662
6919.921875	-61.852940
6921.875000	-61.655006
6923.828125	-61.831623
6925.781250	-61.653389
6927.734375	-61.500736
6929.687500	-61.603371
6931.640625	-61.054310
6933.593750	-61.293964
6935.546875	-61.464947
6937.500000	-61.273674
6939.453125	-60.727863
6941.406250	-60.393936
6943.359375	-60.263985
6945.312500	-61.349556
6947.265625	-61.269024
6949.218750	-61.266716
6951.171875	-61.222404
6953.125000	-61.510426
6955.078125	-61.234680
6957.031250	-61.285873
6958.984375	-61.856144
6960.937500	-62.163891
6962.890625	-62.285248
6964.843750	-62.963650
6966.796875	-62.518780
6968.750000	-62.588974
6970.703125	-63.318554
6972.656250	-63.458076
6974.609375	-63.645767
6976.562500	-64.276352
6978.515625	-64.738503
6980.468750	-64.678139
6982.421875	-64.928787
6984.375000	-65.531822
6986.328125	-65.635193
6988.281250	-65.770996
6990.234375	-66.112579
6992.187500	-66.183426
6994.140625	-66.558044
6996.093750	-66.817680
6998.046875	-67.108162
7000.000000	-67.666191
7001.953125	-68.050415
7003.906250	-67.481560
7005.859375	-68.151276
7007.812500	-69.083282
7009.765625	-69.493019
7011.718750	-69.356964
7013.671875	-68.873489
7015.625000	-69.035873
7017.578125	-70.224373
7019.531250	-70.208977
7021.484375	-70.536545
7023.437500	-70.167343
7025.390625	-70.293808
7027.343750	-70.408386
7029.296875	-70.908516
7031.250000	-71.161552
7033.203125	-71.562004
7035.156250	-71.913910
7037.109375	-72.116722
7039.062500	-71.569023
7041.015625	-71.813721
7042.968750	-72.219009
7044.921875	-72.296219
7046.875000	-72.111580
7048.828125	-72.583305
7050.781250	-72.904579
7052.734375	-72.999603
7054.687500	-72.488068
7056.640625	-72.881447
7058.593750	-73.202957
7060.546875	-73.271652
7062.500000	-73.540344
7064.453125	-74.040550
7066.406250	-73.988045
7068.359375	-74.439323
7070.312500	-73.782356
7072.265625	-73.684998
7074.218750	-73.906670
7076.171875	-74.680122
7078.125000	-74.878868
7080.078125	-75.087234
7082.031250	-75.338669
7083.984375	-74.985153
7085.937500	-74.910156
7087.890625	-74.531036
7089.843750	-74.798576
7091.796875	-74.110466
7093.750000	-74.584518
7095.703125	-74.771912
7097.656250	-74.457932
7099.609375	-74.039520
7101.562500	-74.522400
7103.515625	-75.211670
7105.468750	-75.563019
7107.421875	-75.529793
7109.375000	-76.122353
7111.328125	-75.641632
7113.281250	-75.293518
7115.234375	-75.446625
7117.187500	-74.816505
7119.140625	-75.026726
7121.093750	-75.778915
7123.046875	-75.735100
7125.000000	-75.039040
7126.953125	-74.623840
7128.906250	-75.154022
7130.859375	-74.912148
7132.812500	-75.014236
7134.765625	-75.093445
7136.718750	-75.141060
7138.671875	-75.647247
7140.625000	-75.590935
7142.578125	-75.622231
7144.531250	-74.031418
7146.484375	-74.059761
7148.437500	-74.209953
7150.390625	-74.243370
7152.343750	-73.671158
7154.296875	-74.035812
7156.250000	-74.395447
7158.203125	-74.242355
7160.156250	-74.274643
7162.109375	-74.182602
7164.062500	-73.427483
7166.015625	-73.064766
7167.968750	-73.110817
7169.921875	-73.422264
7171.875000	-73.316132
7173.828125	-73.068802
7175.781250	-72.553818
7177.734375	-72.427620
7179.687500	-72.572464
7181.640625	-72.623123
7183.593750	-72.013313
7185.546875	-71.949203
7187.500000	-71.444275
7189.453125	-71.529984
7191.406250	-71.054359
7193.359375	-70.426163
7195.312500	-70.840530
7197.265625	-71.067970
7199.218750	-71.192001
7201.171875	-70.781563
7203.125000	-70.749008
7205.078125	-71.019531
7207.031250	-71.090164
7208.984375	-71.293579
7210.937500	-71.532372
7212.890625	-71.163116
7214.843750	-70.995651
7216.796875	-71.290627
7218.750000	-71.054474
7220.703125	-71.330185
7222.656250	-71.696167
7224.609375	-72.348297
7226.562500	-73.262779
7228.515625	-73.112251
7230.468750	-73.165886
7232.421875	-73.603043
7234.375000	-73.267159
7236.328125	-73.428764
7238.281250	-73.707451
7240.234375	-74.679672
7242.187500	-75.186508
7244.140625	-75.300697
7246.093750	-75.841682
7248.046875	-75.778717
7250.000000	-75.835106
7251.953125	-76.278877
7253.906250	-76.412163
7255.859375	-77.167542
7257.812500	-76.850067
7259.765625	-77.834030
7261.718750	-78.465988
7263.671875	-77.853828
7265.625000	-77.964737
7267.578125	-78.774429
7269.531250	-79.657379
7271.484375	-79.740852
7273.437500	-80.151573
7275.390625	-80.179626
7277.343750	-80.316734
7279.296875	-81.063721
7281.250000	-80.381462
7283.203125	-81.688972
7285.156250	-82.128975
7287.109375	-82.127090
7289.062500	-82.090607
7291.015625	-82.318993
7292.968750	-82.979790
7294.921875	-83.556641
7296.875000	-83.125885
7298.828125	-82.825699
7300.781250	-82.596413
7302.734375	-82.443954
7304.687500	-83.100121
7306.640625	-83.953979
7308.593750	-84.158455
7310.546875	-83.984528
7312.500000	-83.302956
7314.453125	-83.698334
7316.406250	-84.374214
7318.359375	-84.984001
7320.312500	-84.978455
7322.265625	-84.961037
7324.218750	-85.262138
7326.171875	-85.107727
7328.125000	-85.544983
7330.078125	-86.150543
7332.031250	-85.947830
7333.984375	-85.914436
7335.937500	-85.448402
7337.890625	-84.446106
7339.843750	-84.975800
7341.796875	-86.192398
7343.750000	-86.350800
7345.703125	-86.532539
7347.656250	-86.253761
7349.609375	-86.840462
7351.562500	-86.919571
7353.515625	-86.773666
7355.468750	-86.529129
7357.421875	-86.264488
7359.375000	-86.898911
7361.328125	-87.748398
7363.281250	-87.374374
7365.234375	-87.340958
7367.187500	-86.990997
7369.140625	-87.064178
7371.093750	-86.767586
7373.046875	-86.819199
7375.000000	-86.977478
7376.953125	-86.838203
7378.906250	-88.026306
7380.859375	-87.823654
7382.812500	-88.032547
7384.765625	-87.828094
7386.718750	-88.319862
7388.671875	-88.289368
7390.625000	-87.999405
7392.578125	-88.011589
7394.531250	-87.885391
7396.484375	-87.801910
7398.437500	-87.623177
7400.390625	-87.903473
7402.343750	-88.023903
7404.296875	-87.734116
7406.250000	-87.377548
7408.203125	-87.491203
7410.156250	-88.023201
7412.109375	-87.589371
7414.062500	-87.830750
7416.015625	-87.494690
7417.968750	-87.245628
7419.921875	-87.268188
7421.875000	-87.298866
7423.828125	-87.123619
7425.781250	-87.717560
7427.734375	-87.847366
7429.687500	-87.296402
7431.640625	-86.849136
7433.593750	-86.764999
7435.546875	-86.880135
7437.500000	-86.787910
7439.453125	-86.452492
7441.406250	-86.735069
7443.359375	-86.610657
7445.312500	-86.034477
7447.265625	-85.678497
7449.218750	-86.067787
7451.171875	-86.619926
7453.125000	-86.065598
7455.078125	-85.621918
7457.031250	-85.467346
7458.984375	-85.088043
7460.937500	-85.149757
7462.890625	-84.629463
7464.843750	-84.490601
7466.796875	-85.073662
7468.750000	-85.471916
7470.703125	-85.395859
7472.656250	-85.011131
7474.609375	-84.587151
7476.562500	-85.809692
7478.515625	-85.949127
7480.468750	-85.793205
7482.421875	-85.568382
7484.375000	-85.993629
7486.328125	-85.680176
7488.281250	-85.758759
7490.234375	-86.578430
7492.187500	-86.748489
7494.140625	-86.984772
7496.093750	-87.657471
7498.046875	-88.725426
7500.000000	-88.544083
7501.953125	-89.465614
7503.906250	-89.442612
7505.859375	-89.843979
7507.812500	-90.513832
7509.765625	-90.784119
7511.718750	-91.089676
7513.671875	-91.704803
7515.625000	-92.350441
7517.578125	-92.701866
7519.531250	-92.240761
7521.484375	-92.398964
7523.437500	-92.792854
7525.390625	-92.909164
7527.343750	-93.257294
7529.296875	-94.369972
7531.250000	-95.046860
7533.203125	-95.590393
7535.156250	-95.384857
7537.109375	-95.501068
7539.062500	-96.111252
7541.015625	-96.748657
7542.968750	-96.490723
7544.921875	-96.825577
7546.875000	-97.175240
7548.828125	-96.879471
7550.781250	-97.525658
7552.734375	-97.497742
7554.687500	-98.505310
7556.640625	-98.992920
7558.593750	-99.413200
7560.546875	-99.472191
7562.500000	-99.472275
7564.453125	-99.403664
7566.406250	-100.010384
7568.359375	-100.573524
7570.312500	-100.301064
7572.265625	-101.246292
7574.218750	-100.742310
7576.171875	-100.833466
7578.125000	-101.475761
7580.078125	-102.002045
7582.031250	-102.026825
7583.984375	-101.249023
7585.937500	-102.108910
7587.890625	-102.273514
7589.843750	-102.578064
7591.796875	-102.809242
7593.750000	-102.715782
7595.703125	-102.733566
7597.656250	-103.176819
7599.609375	-103.645584
7601.562500	-103.525879
7603.515625	-104.614799
7605.468750	-105.292892
7607.421875	-103.710030
7609.375000	-103.772133
7611.328125	-104.460777
7613.281250	-105.060982
7615.234375	-105.266487
7617.187500	-105.598724
7619.140625	-105.962204
7621.093750	-106.984703
7623.046875	-106.337898
7625.000000	-106.040390
7626.953125	-106.289314
7628.906250	-106.128761
7630.859375	-106.146492
7632.812500	-106.704163
7634.765625	-106.360405
7636.718750	-106.837097
7638.671875	-107.159782
7640.625000	-107.682564
7642.578125	-107.991829
7644.531250	-107.783997
7646.484375	-108.213127
7648.437500	-108.495628
7650.390625	-108.694023
7652.343750	-108.721573
7654.296875	-108.612007
7656.250000	-109.439392
7658.203125	-109.233635
7660.156250	-109.442574
7662.109375	-109.844810
7664.062500	-109.681900
7666.015625	-109.502670
7667.968750	-109.470978
7669.921875	-110.424019
7671.875000	-111.168243
7673.828125	-111.245377
7675.781250	-111.092102
7677.734375	-111.283302
7679.687500	-112.463005
7681.640625	-112.611244
7683.593750	-112.079910
7685.546875	-111.770973
7687.500000	-112.346954
7689.453125	-112.595940
7691.406250	-113.376511
7693.359375	-113.419800
7695.312500	-113.168259
7697.265625	-112.986855
7699.218750	-113.422890
7701.171875	-114.014313
7703.125000	-114.777466
7705.078125	-114.700760
7707.031250	-114.561340
7708.984375	-114.303047
7710.937500	-114.861183
7712.890625	-115.657501
7714.843750	-116.135597
7716.796875	-115.762604
7718.750000	-115.592636
7720.703125	-115.727943
7722.656250	-116.678444
7724.609375	-116.809952
7726.562500	-116.975197
7728.515625	-117.396164
7730.468750	-117.385017
7732.421875	-117.618362
7734.375000	-118.403168
7736.328125	-118.649422
7738.281250	-119.836166
7740.234375	-119.728035
7742.187500	-119.933449
7744.140625	-120.665077
7746.093750	-121.679588
7748.046875	-122.378624
7750.000000	-121.759148
7751.953125	-121.998878
7753.906250	-122.436859
7755.859375	-122.727180
7757.812500	-123.657112
7759.765625	-124.796890
7761.718750	-124.779068
7763.671875	-125.245529
7765.625000	-125.884033
7767.578125	-126.299232
7769.531250	-127.319130
7771.484375	-127.401451
7773.437500	-127.678223
7775.390625	-128.690186
7777.343750	-129.253601
7779.296875	-129.799438
7781.250000	-129.977097
7783.203125	-130.635895
7785.156250	-130.876633
7787.109375	-130.826920
7789.062500	-132.022537
7791.015625	-133.028320
7792.968750	-133.192017
7794.921875	-133.210754
7796.875000	-134.244125
7798.828125	-134.437790
7800.781250	-135.295105
7802.734375	-135.417770
7804.687500	-136.260239
7806.640625	-136.616104
7808.593750	-137.269745
7810.546875	-137.776154
7812.500000	-138.045364
7814.453125	-139.090698
7816.406250	-139.620239
7818.359375	-140.068085
7820.312500	-140.349579
7822.265625	-141.171951
7824.218750	-142.198929
7826.171875	-142.346069
7828.125000	-142.565506
7830.078125	-143.156586
7832.031250	-143.572006
7833.984375	-144.647125
7835.937500	-146.185730
7837.890625	-146.875412
7839.843750	-147.333145
7841.796875	-147.922531
7843.750000	-148.284195
7845.703125	-148.894623
7847.656250	-149.537628
7849.609375	-150.190735
7851.562500	-151.347549
7853.515625	-152.318298
7855.468750	-152.880493
7857.421875	-153.056595
7859.375000	-154.140442
7861.328125	-154.685455
7863.281250	-155.638443
7865.234375	-156.577896
7867.187500	-157.196609
7869.140625	-157.394791
7871.093750	-157.869095
7873.046875	-158.874039
7875.000000	-160.209106
7876.953125	-161.236343
7878.906250	-161.968918
7880.859375	-163.028412
7882.812500	-163.796417
7884.765625	-164.178513
7886.718750	-164.719437
7888.671875	-165.579529
7890.625000	-166.853180
7892.578125	-168.333939
7894.531250	-168.704483
7896.484375	-169.428680
7898.437500	-170.297974
7900.390625	-171.563950
7902.343750	-172.619598
7904.296875	-172.786545
7906.250000	-174.152740
7908.203125	-175.524368
7910.156250	-176.124115
7912.109375	-177.195251
7914.062500	-178.360550
7916.015625	-178.840912
7917.968750	-179.865494
7919.921875	-180.923950
7921.875000	-182.608856
7923.828125	-183.079147
7925.781250	-182.928909
7927.734375	-184.400986
7929.687500	-184.491898
7931.640625	-184.868713
7933.593750	-186.214111
7935.546875	-186.655167
7937.500000	-187.278610
7939.453125	-187.641724
7941.406250	-187.153152
7943.359375	-187.776291
7945.312500	-187.370270
7947.265625	-187.871155
7949.218750	-187.717056
7951.171875	-187.040344
7953.125000	-188.374283
7955.078125	-187.410156
7957.031250	-188.593704
7958.984375	-188.221329
7960.937500	-188.766525
7962.890625	-186.865356
7964.843750	-187.104370
7966.796875	-188.285172
7968.750000	-188.699768
7970.703125	-188.026947
7972.656250	-187.623749
7974.609375	-187.461685
7976.562500	-187.622482
7978.515625	-187.905899
7980.468750	-187.482224
7982.421875	-187.288605
7984.375000	-187.376785
7986.328125	-187.697906
7988.281250	-187.636017
7990.234375	-187.195282
7992.187500	-186.739044
7994.140625	-186.804260
7996.093750	-186.654709
7998.046875	-187.045624
