Frequency (Hz)	Level (dB)
3.906250	-54.250542
7.812500	-52.838383
11.718750	-47.949692
15.625000	-39.378410
19.531250	-45.114971
23.437500	-44.050377
27.343750	-39.520344
31.250000	-34.952938
35.156250	-32.945763
39.062500	-36.832386
42.968750	-40.720963
46.875000	-42.405914
50.781250	-41.347527
54.687500	-40.385754
58.593750	-40.947071
62.500000	-41.791317
66.406250	-42.183571
70.312500	-42.207207
74.218750	-41.447746
78.125000	-41.754730
82.031250	-41.013859
85.937500	-40.994827
89.843750	-40.890892
93.750000	-40.009312
97.656250	-40.303707
101.562500	-39.836964
105.468750	-39.713894
109.375000	-40.189209
113.281250	-39.894222
117.187500	-39.247581
121.093750	-39.675148
125.000000	-38.299873
128.906250	-38.713654
132.812500	-38.573624
136.718750	-38.263935
140.625000	-38.937534
144.531250	-38.790146
148.437500	-38.309849
152.343750	-38.285030
156.250000	-38.209766
160.156250	-38.028645
164.062500	-38.070038
167.968750	-37.793716
171.875000	-36.931232
175.781250	-37.681137
179.687500	-37.109406
183.593750	-37.143051
187.500000	-36.773582
191.406250	-36.762207
195.312500	-36.542843
199.218750	-36.070232
203.125000	-36.428123
207.031250	-36.427063
210.937500	-36.826172
214.843750	-36.346642
218.750000	-36.637177
222.656250	-36.539623
226.562500	-35.896690
230.468750	-35.394421
234.375000	-35.764729
238.281250	-36.493412
242.187500	-36.800060
246.093750	-35.640747
250.000000	-35.552715
253.906250	-35.237286
257.812500	-35.197166
261.718750	-35.055847
265.625000	-35.159863
269.531250	-35.432705
273.437500	-36.183582
277.343750	-36.409290
281.250000	-36.482063
285.156250	-36.177311
289.062500	-36.109360
292.968750	-35.865269
296.875000	-35.858112
300.781250	-36.286037
304.687500	-36.604259
308.593750	-36.159370
312.500000	-36.663452
316.406250	-36.520042
320.312500	-37.044075
324.218750	-36.474255
328.125000	-36.400635
332.031250	-36.636379
335.937500	-36.594841
339.843750	-36.774162
343.750000	-37.193310
347.656250	-37.834583
351.562500	-37.923050
355.468750	-37.379520
359.375000	-36.646564
363.281250	-37.443306
367.187500	-37.522549
371.093750	-37.477188
375.000000	-37.610092
378.906250	-37.271408
382.812500	-37.581333
386.718750	-37.823700
390.625000	-37.492027
394.531250	-37.730579
398.437500	-37.495312
402.343750	-37.812263
406.250000	-38.408043
410.156250	-38.290100
414.062500	-37.703239
417.968750	-37.694504
421.875000	-38.707928
425.781250	-38.474045
429.687500	-38.354591
433.593750	-38.972469
437.500000	-38.637608
441.406250	-38.616150
445.312500	-39.243336
449.218750	-38.584167
453.125000	-38.537144
457.031250	-39.358559
460.937500	-38.646866
464.843750	-39.004787
468.750000	-38.292797
472.656250	-38.523445
476.562500	-38.257298
480.468750	-39.008305
484.375000	-38.780727
488.281250	-39.128510
492.187500	-38.852737
496.093750	-39.723694
500.000000	-39.142143
503.906250	-39.249355
507.812500	-39.332245
511.718750	-39.451084
515.625000	-38.358219
519.531250	-38.712250
523.437500	-38.669106
527.343750	-38.403740
531.250000	-38.312157
535.156250	-38.392899
539.062500	-38.913330
542.968750	-39.041241
546.875000	-39.289444
550.781250	-39.984993
554.687500	-40.488708
558.593750	-40.365486
562.500000	-40.128727
566.406250	-40.190197
570.312500	-40.172089
574.218750	-40.488491
578.125000	-40.169456
582.031250	-40.474518
585.937500	-40.585037
589.843750	-40.661354
593.750000	-40.935207
597.656250	-40.909275
601.562500	-41.003059
605.468750	-40.907829
609.375000	-41.110435
613.281250	-41.266769
617.187500	-41.008327
621.093750	-41.672428
625.000000	-41.119946
628.906250	-40.898384
632.812500	-41.258194
636.718750	-41.133850
640.625000	-41.313656
644.531250	-41.859661
648.437500	-41.390869
652.343750	-41.750427
656.250000	-41.257942
660.156250	-42.125748
664.062500	-41.489349
667.968750	-41.835869
671.875000	-41.897995
675.781250	-41.583355
679.687500	-42.190495
683.593750	-42.030487
687.500000	-42.346550
691.406250	-41.875549
695.312500	-42.281231
699.218750	-42.172752
703.125000	-42.391724
707.031250	-42.879303
710.937500	-42.305344
714.843750	-43.095222
718.750000	-43.004810
722.656250	-42.599689
726.562500	-42.972076
730.468750	-42.824001
734.375000	-42.601742
738.281250	-43.024479
742.187500	-43.250656
746.093750	-43.099911
750.000000	-42.935978
753.906250	-43.790955
757.812500	-43.170971
761.718750	-43.395039
765.625000	-43.561943
769.531250	-42.771751
773.437500	-43.419029
777.343750	-43.707520
781.250000	-43.319359
785.156250	-42.488594
789.062500	-42.440716
792.968750	-41.876675
796.875000	-42.921429
800.781250	-42.731701
804.687500	-43.271282
808.593750	-43.638462
812.500000	-43.800293
816.406250	-43.853992
820.312500	-44.138458
824.218750	-43.844757
828.125000	-44.721199
832.031250	-44.631298
835.937500	-44.760052
839.843750	-44.607948
843.750000	-45.203419
847.656250	-44.989048
851.562500	-44.896027
855.468750	-45.430454
859.375000	-45.926281
863.281250	-45.269272
867.187500	-45.024010
871.093750	-45.921097
875.000000	-45.449471
878.906250	-45.812355
882.812500	-46.333057
886.718750	-46.032074
890.625000	-44.898159
894.531250	-45.359203
898.437500	-46.045776
902.343750	-46.033051
906.250000	-45.793629
910.156250	-45.899467
914.062500	-46.570343
917.968750	-47.047371
921.875000	-46.210228
925.781250	-46.874516
929.687500	-46.287094
933.593750	-46.539593
937.500000	-46.801514
941.406250	-47.244484
945.312500	-47.274040
949.218750	-46.487537
953.125000	-46.803871
957.031250	-47.376495
960.937500	-47.158745
964.843750	-47.097767
968.750000	-47.100143
972.656250	-47.415665
976.562500	-47.257690
980.468750	-47.055309
984.375000	-47.908356
988.281250	-47.750538
992.187500	-47.924652
996.093750	-47.844982
1000.000000	-47.541252
1003.906250	-48.250835
1007.812500	-47.676941
1011.718750	-47.402740
1015.625000	-47.918709
1019.531250	-48.635048
1023.437500	-48.365486
1027.343750	-48.974537
1031.250000	-48.366882
1035.156250	-47.728451
1039.062500	-48.076965
1042.968750	-47.271458
1046.875000	-46.148819
1050.781250	-46.529888
1054.687500	-45.551712
1058.593750	-45.172047
1062.500000	-45.214268
1066.406250	-45.530888
1070.312500	-45.189507
1074.218750	-45.179554
1078.125000	-46.348804
1082.031250	-46.712627
1085.937500	-47.510582
1089.843750	-47.214752
1093.750000	-48.354404
1097.656250	-48.435020
1101.562500	-48.564270
1105.468750	-49.005737
1109.375000	-49.010155
1113.281250	-49.281986
1117.187500	-50.213066
1121.093750	-49.917618
1125.000000	-50.133858
1128.906250	-50.515011
1132.812500	-50.557106
1136.718750	-50.428326
1140.625000	-51.058174
1144.531250	-50.915001
1148.437500	-50.597065
1152.343750	-51.044857
1156.250000	-51.384769
1160.156250	-51.743160
1164.062500	-51.350254
1167.968750	-51.869812
1171.875000	-52.066189
1175.781250	-51.851051
1179.687500	-51.685108
1183.593750	-52.345295
1187.500000	-52.075195
1191.406250	-51.910500
1195.312500	-52.453430
1199.218750	-52.244450
1203.125000	-52.010353
1207.031250	-52.583004
1210.937500	-52.494087
1214.843750	-52.806530
1218.750000	-52.777092
1222.656250	-52.766945
1226.562500	-52.678165
1230.468750	-53.189217
1234.375000	-52.856586
1238.281250	-53.385693
1242.187500	-53.322674
1246.093750	-53.285557
1250.000000	-53.054760
1253.906250	-53.335060
1257.812500	-52.878880
1261.718750	-53.149628
1265.625000	-53.513733
1269.531250	-53.234104
1273.437500	-53.114662
1277.343750	-53.586086
1281.250000	-53.739841
1285.156250	-53.158356
1289.062500	-53.069904
1292.968750	-52.872864
1296.875000	-52.871395
1300.781250	-52.956352
1304.687500	-52.598858
1308.593750	-51.702785
1312.500000	-51.200294
1316.406250	-50.411240
1320.312500	-49.962891
1324.218750	-49.733658
1328.125000	-49.233097
1332.031250	-50.310127
1335.937500	-50.941425
1339.843750	-51.873646
1343.750000	-52.011959
1347.656250	-52.299271
1351.562500	-53.242775
1355.468750	-53.406677
1359.375000	-53.799221
1363.281250	-54.364777
1367.187500	-54.258057
1371.093750	-54.536358
1375.000000	-55.454853
1378.906250	-55.103874
1382.812500	-55.291424
1386.718750	-55.250977
1390.625000	-55.024353
1394.531250	-55.852127
1398.437500	-56.114323
1402.343750	-55.675770
1406.250000	-55.680141
1410.156250	-56.274837
1414.062500	-56.012146
1417.968750	-56.144909
1421.875000	-56.595818
1425.781250	-56.333038
1429.687500	-56.563789
1433.593750	-56.688690
1437.500000	-56.874844
1441.406250	-56.990993
1445.312500	-56.512260
1449.218750	-57.509724
1453.125000	-56.521450
1457.031250	-56.725376
1460.937500	-57.240437
1464.843750	-57.684673
1468.750000	-57.819534
1472.656250	-57.805237
1476.562500	-57.870586
1480.468750	-57.531940
1484.375000	-57.059883
1488.281250	-57.200123
1492.187500	-57.764328
1496.093750	-57.815441
1500.000000	-58.060722
1503.906250	-57.986385
1507.812500	-57.713982
1511.718750	-57.804050
1515.625000	-58.133770
1519.531250	-58.015415
1523.437500	-58.404850
1527.343750	-57.885059
1531.250000	-57.511906
1535.156250	-57.941750
1539.062500	-57.832172
1542.968750	-57.561138
1546.875000	-57.130638
1550.781250	-57.670048
1554.687500	-56.678982
1558.593750	-55.850613
1562.500000	-55.356281
1566.406250	-55.173443
1570.312500	-54.841484
1574.218750	-53.657913
1578.125000	-53.497181
1582.031250	-52.292446
1585.937500	-51.326172
1589.843750	-50.623066
1593.750000	-50.744389
1597.656250	-50.752380
1601.562500	-51.213459
1605.468750	-51.599346
1609.375000	-53.106869
1613.281250	-53.829216
1617.187500	-54.576336
1621.093750	-55.810005
1625.000000	-56.319664
1628.906250	-56.668884
1632.812500	-56.854549
1636.718750	-57.664757
1640.625000	-57.321220
1644.531250	-57.636330
1648.437500	-59.218014
1652.343750	-59.128033
1656.250000	-58.153698
1660.156250	-58.565014
1664.062500	-59.089993
1667.968750	-58.875000
1671.875000	-59.497437
1675.781250	-60.293102
1679.687500	-60.175133
1683.593750	-60.026855
1687.500000	-59.620926
1691.406250	-60.436363
1695.312500	-60.148685
1699.218750	-60.402687
1703.125000	-60.922985
1707.031250	-60.812199
1710.937500	-61.159554
1714.843750	-61.192890
1718.750000	-61.166969
1722.656250	-61.171059
1726.562500	-60.179092
1730.468750	-60.741730
1734.375000	-61.495674
1738.281250	-61.074036
1742.187500	-60.693508
1746.093750	-60.951508
1750.000000	-60.494633
1753.906250	-60.901627
1757.812500	-61.288063
1761.718750	-61.024170
1765.625000	-60.980350
1769.531250	-61.368896
1773.437500	-60.887726
1777.343750	-61.352818
1781.250000	-61.527134
1785.156250	-59.873665
1789.062500	-59.728851
1792.968750	-59.698582
1796.875000	-59.220264
1800.781250	-58.806206
1804.687500	-58.884979
1808.593750	-57.936630
1812.500000	-57.954407
1816.406250	-56.595268
1820.312500	-56.613358
1824.218750	-55.465130
1828.125000	-54.472794
1832.031250	-54.249847
1835.937500	-53.626488
1839.843750	-52.623512
1843.750000	-51.129803
1847.656250	-51.195068
1851.562500	-50.204140
1855.468750	-48.686882
1859.375000	-48.320900
1863.281250	-48.836071
1867.187500	-48.904888
1871.093750	-50.002731
1875.000000	-50.666000
1878.906250	-51.633717
1882.812500	-52.845905
1886.718750	-53.895618
1890.625000	-53.581203
1894.531250	-54.847675
1898.437500	-55.646244
1902.343750	-56.412689
1906.250000	-56.613255
1910.156250	-56.910194
1914.062500	-57.540260
1917.968750	-58.278088
1921.875000	-58.451607
1925.781250	-59.265816
1929.687500	-58.937740
1933.593750	-59.535496
1937.500000	-59.879967
1941.406250	-59.912346
1945.312500	-60.741257
1949.218750	-60.981739
1953.125000	-61.547928
1957.031250	-61.588722
1960.937500	-61.542519
1964.843750	-61.524529
1968.750000	-61.116219
1972.656250	-61.574799
1976.562500	-61.349072
1980.468750	-61.588814
1984.375000	-61.798901
1988.281250	-61.893368
1992.187500	-62.316948
1996.093750	-62.159752
2000.000000	-62.612789
2003.906250	-62.319607
2007.812500	-62.336025
2011.718750	-62.156216
2015.625000	-62.486362
2019.531250	-62.009361
2023.437500	-61.615795
2027.343750	-62.197083
2031.250000	-61.685799
2035.156250	-61.240726
2039.062500	-60.877178
2042.968750	-61.030453
2046.875000	-60.644257
2050.781250	-60.635658
2054.687500	-60.087402
2058.593750	-59.595547
2062.500000	-59.381508
2066.406250	-58.903397
2070.312500	-58.756264
2074.218750	-58.066357
2078.125000	-57.606842
2082.031250	-56.927467
2085.937500	-56.488773
2089.843750	-55.360447
2093.750000	-55.140820
2097.656250	-53.909512
2101.562500	-52.648609
2105.468750	-51.596210
2109.375000	-51.043915
2113.281250	-50.210957
2117.187500	-49.207649
2121.093750	-48.301758
2125.000000	-47.954506
2128.906250	-48.284504
2132.812500	-48.955914
2136.718750	-49.001381
2140.625000	-50.333618
2144.531250	-51.124950
2148.437500	-51.618832
2152.343750	-52.216492
2156.250000	-52.808796
2160.156250	-54.058342
2164.062500	-54.072155
2167.968750	-54.679688
2171.875000	-55.148319
2175.781250	-55.929119
2179.687500	-56.235546
2183.593750	-56.475990
2187.500000	-57.208500
2191.406250	-57.472599
2195.312500	-57.712952
2199.218750	-57.285065
2203.125000	-58.045364
2207.031250	-58.465359
2210.937500	-58.235744
2214.843750	-58.449982
2218.750000	-59.011150
2222.656250	-59.577953
2226.562500	-58.810154
2230.468750	-59.495197
2234.375000	-59.679348
2238.281250	-60.184441
2242.187500	-60.707920
2246.093750	-60.838432
2250.000000	-60.425255
2253.906250	-60.264042
2257.812500	-60.708153
2261.718750	-60.598885
2265.625000	-60.237679
2269.531250	-60.557022
2273.437500	-60.881992
2277.343750	-60.588226
2281.250000	-60.668907
2285.156250	-60.618778
2289.062500	-61.004421
2292.968750	-60.054565
2296.875000	-59.991146
2300.781250	-59.862343
2304.687500	-59.842777
2308.593750	-59.366852
2312.500000	-59.185375
2316.406250	-58.629940
2320.312500	-58.445599
2324.218750	-57.824463
2328.125000	-57.020832
2332.031250	-56.493553
2335.937500	-56.799038
2339.843750	-56.087299
2343.750000	-55.601955
2347.656250	-55.143536
2351.562500	-54.825024
2355.468750	-53.924255
2359.375000	-53.190929
2363.281250	-52.094608
2367.187500	-51.396263
2371.093750	-50.141556
2375.000000	-49.624889
2378.906250	-49.348782
2382.812500	-47.798504
2386.718750	-47.389885
2390.625000	-46.749367
2394.531250	-46.052383
2398.437500	-47.335049
2402.343750	-47.450237
2406.250000	-48.536674
2410.156250	-50.445744
2414.062500	-50.249153
2417.968750	-50.676250
2421.875000	-51.342705
2425.781250	-52.805901
2429.687500	-52.896248
2433.593750	-53.405567
2437.500000	-54.552177
2441.406250	-54.945999
2445.312500	-55.854172
2449.218750	-55.395775
2453.125000	-55.654251
2457.031250	-56.166031
2460.937500	-56.842304
2464.843750	-56.231800
2468.750000	-57.892136
2472.656250	-57.966793
2476.562500	-58.053062
2480.468750	-58.354156
2484.375000	-58.355877
2488.281250	-58.450245
2492.187500	-58.762764
2496.093750	-58.617691
2500.000000	-58.561687
2503.906250	-58.792736
2507.812500	-59.373833
2511.718750	-59.597916
2515.625000	-59.281094
2519.531250	-59.585506
2523.437500	-59.641945
2527.343750	-59.023548
2531.250000	-59.129375
2535.156250	-59.284904
2539.062500	-59.265091
2542.968750	-58.947956
2546.875000	-59.028309
2550.781250	-58.236221
2554.687500	-58.540039
2558.593750	-58.349518
2562.500000	-58.541138
2566.406250	-58.021214
2570.312500	-57.696289
2574.218750	-57.857239
2578.125000	-56.604465
2582.031250	-56.865124
2585.937500	-56.557430
2589.843750	-56.467796
2593.750000	-55.688313
2597.656250	-54.717640
2601.562500	-54.757664
2605.468750	-54.266140
2609.375000	-53.200962
2613.281250	-53.226559
2617.187500	-52.525509
2621.093750	-51.622894
2625.000000	-51.247173
2628.906250	-50.056202
2632.812500	-49.360668
2636.718750	-49.083626
2640.625000	-47.344910
2644.531250	-45.959000
2648.437500	-45.626289
2652.343750	-44.995369
2656.250000	-44.398384
2660.156250	-45.073059
2664.062500	-46.189262
2667.968750	-46.154804
2671.875000	-46.817856
2675.781250	-48.072632
2679.687500	-48.992664
2683.593750	-50.339252
2687.500000	-50.439407
2691.406250	-51.178520
2695.312500	-51.708702
2699.218750	-51.923229
2703.125000	-52.361008
2707.031250	-52.949696
2710.937500	-53.287861
2714.843750	-54.409092
2718.750000	-54.542313
2722.656250	-54.589798
2726.562500	-54.818218
2730.468750	-55.490913
2734.375000	-55.772980
2738.281250	-55.814854
2742.187500	-56.743206
2746.093750	-56.050526
2750.000000	-56.354458
2753.906250	-56.510525
2757.812500	-56.528732
2761.718750	-56.112766
2765.625000	-56.789612
2769.531250	-56.635143
2773.437500	-56.880878
2777.343750	-57.038071
2781.250000	-57.535656
2785.156250	-57.515881
2789.062500	-57.651985
2792.968750	-57.108738
2796.875000	-57.154091
2800.781250	-57.171570
2804.687500	-57.073624
2808.593750	-56.678555
2812.500000	-56.987560
2816.406250	-56.476402
2820.312500	-55.469357
2824.218750	-55.767681
2828.125000	-55.922295
2832.031250	-54.925743
2835.937500	-55.367596
2839.843750	-55.256752
2843.750000	-54.580769
2847.656250	-54.138519
2851.562500	-53.802437
2855.468750	-53.078781
2859.375000	-53.475452
2863.281250	-52.462109
2867.187500	-51.885513
2871.093750	-51.536678
2875.000000	-51.149467
2878.906250	-50.329479
2882.812500	-48.916267
2886.718750	-48.857479
2890.625000	-48.927299
2894.531250	-47.694027
2898.437500	-46.423744
2902.343750	-45.756268
2906.250000	-45.231342
2910.156250	-44.724586
2914.062500	-44.237328
2917.968750	-43.564114
2921.875000	-43.232830
2925.781250	-43.264168
2929.687500	-44.196068
2933.593750	-44.663616
2937.500000	-44.776012
2941.406250	-45.445293
2945.312500	-46.260326
2949.218750	-47.130016
2953.125000	-47.380295
2957.031250	-48.519234
2960.937500	-48.669495
2964.843750	-49.473099
2968.750000	-50.208714
2972.656250	-51.155258
2976.562500	-51.068825
2980.468750	-51.603870
2984.375000	-52.333382
2988.281250	-52.704319
2992.187500	-52.485691
2996.093750	-53.495640
3000.000000	-53.205845
3003.906250	-53.422131
3007.812500	-53.324146
3011.718750	-53.420898
3015.625000	-54.024372
3019.531250	-54.258270
3023.437500	-54.550518
3027.343750	-54.480095
3031.250000	-54.840820
3035.156250	-54.592003
3039.062500	-54.323330
3042.968750	-54.404503
3046.875000	-54.628387
3050.781250	-54.735844
3054.687500	-55.052616
3058.593750	-54.594173
3062.500000	-54.589245
3066.406250	-54.467991
3070.312500	-54.591915
3074.218750	-53.900784
3078.125000	-53.881413
3082.031250	-53.516132
3085.937500	-53.995098
3089.843750	-53.837784
3093.750000	-53.518024
3097.656250	-52.903690
3101.562500	-52.114281
3105.468750	-52.195042
3109.375000	-52.201111
3113.281250	-51.447037
3117.187500	-51.522491
3121.093750	-50.984955
3125.000000	-50.414497
3128.906250	-50.479630
3132.812500	-50.014202
3136.718750	-49.281338
3140.625000	-48.964001
3144.531250	-48.178017
3148.437500	-47.348000
3152.343750	-46.766037
3156.250000	-45.621239
3160.156250	-45.691181
3164.062500	-45.084312
3167.968750	-44.132374
3171.875000	-43.420086
3175.781250	-42.956982
3179.687500	-41.867046
3183.593750	-41.388550
3187.500000	-41.367405
3191.406250	-41.945694
3195.312500	-42.651119
3199.218750	-42.626663
3203.125000	-43.206036
3207.031250	-43.848064
3210.937500	-44.199581
3214.843750	-45.435589
3218.750000	-45.771053
3222.656250	-46.468147
3226.562500	-47.945557
3230.468750	-47.521748
3234.375000	-47.873131
3238.281250	-49.025383
3242.187500	-48.272522
3246.093750	-49.479801
3250.000000	-49.157288
3253.906250	-49.323517
3257.812500	-49.992462
3261.718750	-50.865738
3265.625000	-50.307022
3269.531250	-51.040825
3273.437500	-51.471062
3277.343750	-51.098057
3281.250000	-51.052166
3285.156250	-51.688816
3289.062500	-52.097595
3292.968750	-52.466152
3296.875000	-52.172440
3300.781250	-51.946671
3304.687500	-52.281696
3308.593750	-52.803703
3312.500000	-52.318359
3316.406250	-52.454933
3320.312500	-52.317074
3324.218750	-52.198044
3328.125000	-52.365593
3332.031250	-52.317577
3335.937500	-52.063652
3339.843750	-51.452423
3343.750000	-52.153397
3347.656250	-51.657295
3351.562500	-51.153206
3355.468750	-50.641533
3359.375000	-51.318459
3363.281250	-50.993889
3367.187500	-50.409996
3371.093750	-50.118568
3375.000000	-50.161396
3378.906250	-49.395039
3382.812500	-49.125221
3386.718750	-48.631462
3390.625000	-49.378368
3394.531250	-48.909367
3398.437500	-48.233639
3402.343750	-47.421951
3406.250000	-46.680923
3410.156250	-45.371925
3414.062500	-46.161114
3417.968750	-45.113731
3421.875000	-45.018799
3425.781250	-44.290234
3429.687500	-43.691738
3433.593750	-42.622292
3437.500000	-41.640705
3441.406250	-41.333012
3445.312500	-41.719635
3449.218750	-40.929035
3453.125000	-41.571075
3457.031250	-40.697189
3460.937500	-40.665382
3464.843750	-41.171608
3468.750000	-41.455975
3472.656250	-42.277889
3476.562500	-43.349770
3480.468750	-43.135399
3484.375000	-44.097614
3488.281250	-44.427120
3492.187500	-45.308830
3496.093750	-45.697796
3500.000000	-46.048538
3503.906250	-46.445534
3507.812500	-47.114285
3511.718750	-47.885548
3515.625000	-47.750072
3519.531250	-48.309879
3523.437500	-47.930691
3527.343750	-48.759285
3531.250000	-49.366634
3535.156250	-48.655937
3539.062500	-49.376598
3542.968750	-49.837055
3546.875000	-49.958057
3550.781250	-49.769928
3554.687500	-50.409206
3558.593750	-50.462151
3562.500000	-50.179882
3566.406250	-50.122398
3570.312500	-50.789661
3574.218750	-50.768173
3578.125000	-50.477238
3582.031250	-50.221962
3585.937500	-50.859318
3589.843750	-50.662651
3593.750000	-50.652050
3597.656250	-50.552658
3601.562500	-50.172440
3605.468750	-50.739452
3609.375000	-49.329693
3613.281250	-50.389248
3617.187500	-50.560875
3621.093750	-49.469955
3625.000000	-49.319668
3628.906250	-49.499496
3632.812500	-49.668171
3636.718750	-49.242657
3640.625000	-48.273968
3644.531250	-48.572834
3648.437500	-48.895988
3652.343750	-48.437492
3656.250000	-47.947044
3660.156250	-47.854103
3664.062500	-47.065460
3667.968750	-46.699142
3671.875000	-46.131382
3675.781250	-46.044380
3679.687500	-45.656078
3683.593750	-45.106365
3687.500000	-44.158386
3691.406250	-43.191219
3695.312500	-42.976875
3699.218750	-42.125835
3703.125000	-41.442963
3707.031250	-41.793266
3710.937500	-41.334194
3714.843750	-41.290382
3718.750000	-40.715736
3722.656250	-40.068302
3726.562500	-40.167667
3730.468750	-40.673710
3734.375000	-40.975628
3738.281250	-41.894524
3742.187500	-43.388081
3746.093750	-42.809185
3750.000000	-43.807625
3753.906250	-43.823414
3757.812500	-45.004074
3761.718750	-45.386440
3765.625000	-45.879433
3769.531250	-46.237198
3773.437500	-46.346535
3777.343750	-46.755638
3781.250000	-46.751568
3785.156250	-47.406464
3789.062500	-48.307888
3792.968750	-48.159351
3796.875000	-48.580799
3800.781250	-48.476196
3804.687500	-48.533554
3808.593750	-49.732403
3812.500000	-49.541973
3816.406250	-49.094604
3820.312500	-49.841362
3824.218750	-49.687592
3828.125000	-49.647182
3832.031250	-50.300991
3835.937500	-50.104065
3839.843750	-50.255337
3843.750000	-50.578865
3847.656250	-50.245323
3851.562500	-50.490482
3855.468750	-50.294052
3859.375000	-51.073112
3863.281250	-50.379440
3867.187500	-50.565445
3871.093750	-50.732956
3875.000000	-50.338951
3878.906250	-50.581989
3882.812500	-49.910030
3886.718750	-49.957405
3890.625000	-49.437881
3894.531250	-49.539322
3898.437500	-50.102036
3902.343750	-49.289261
3906.250000	-50.039436
3910.156250	-48.649582
3914.062500	-48.290928
3917.968750	-48.022038
3921.875000	-48.071056
3925.781250	-47.467716
3929.687500	-47.086437
3933.593750	-46.225994
3937.500000	-45.632679
3941.406250	-46.194447
3945.312500	-45.600624
3949.218750	-44.501350
3953.125000	-44.434090
3957.031250	-43.813133
3960.937500	-43.658199
3964.843750	-43.444344
3968.750000	-42.781765
3972.656250	-41.577526
3976.562500	-41.468460
3980.468750	-40.704983
3984.375000	-40.955387
3988.281250	-40.165176
3992.187500	-40.780998
3996.093750	-40.903507
4000.000000	-41.350990
4003.906250	-41.565460
4007.812500	-41.955517
4011.718750	-43.162941
4015.625000	-43.536922
4019.531250	-44.288315
4023.437500	-44.362850
4027.343750	-45.097309
4031.250000	-44.890812
4035.156250	-46.021904
4039.062500	-46.343533
4042.968750	-47.052212
4046.875000	-47.494129
4050.781250	-47.894669
4054.687500	-48.369980
4058.593750	-48.387806
4062.500000	-49.007217
4066.406250	-48.704052
4070.312500	-48.542000
4074.218750	-49.227364
4078.125000	-49.801304
4082.031250	-50.071552
4085.937500	-50.111427
4089.843750	-50.201088
4093.750000	-50.989822
4097.656250	-50.881729
4101.562500	-51.324020
4105.468750	-50.433712
4109.375000	-50.710762
4113.281250	-51.040966
4117.187500	-51.050659
4121.093750	-50.922722
4125.000000	-51.267487
4128.906250	-51.617126
4132.812500	-50.753643
4136.718750	-50.896988
4140.625000	-50.867447
4144.531250	-50.472553
4148.437500	-50.905605
4152.343750	-50.651188
4156.250000	-49.670063
4160.156250	-50.134228
4164.062500	-49.921371
4167.968750	-49.572502
4171.875000	-50.061077
4175.781250	-49.240498
4179.687500	-49.547771
4183.593750	-48.617634
4187.500000	-49.051140
4191.406250	-47.647671
4195.312500	-47.701744
4199.218750	-47.395092
4203.125000	-46.606190
4207.031250	-46.323303
4210.937500	-46.272472
4214.843750	-46.062199
4218.750000	-44.972141
4222.656250	-44.180061
4226.562500	-43.750050
4230.468750	-43.393463
4234.375000	-42.389000
4238.281250	-42.498329
4242.187500	-41.320965
4246.093750	-41.286739
4250.000000	-41.041943
4253.906250	-40.790081
4257.812500	-40.714905
4261.718750	-40.730869
4265.625000	-41.757465
4269.531250	-42.314812
4273.437500	-42.732014
4277.343750	-43.131172
4281.250000	-43.983086
4285.156250	-44.745758
4289.062500	-44.886814
4292.968750	-45.516735
4296.875000	-45.800373
4300.781250	-45.925213
4304.687500	-46.574150
4308.593750	-47.732964
4312.500000	-48.105305
4316.406250	-47.603020
4320.312500	-48.246666
4324.218750	-48.982952
4328.125000	-48.676098
4332.031250	-49.073498
4335.937500	-49.549934
4339.843750	-49.812962
4343.750000	-50.391663
4347.656250	-50.633499
4351.562500	-50.333981
4355.468750	-50.662529
4359.375000	-50.973587
4363.281250	-50.359589
4367.187500	-51.035419
4371.093750	-50.818291
4375.000000	-50.751404
4378.906250	-51.019283
4382.812500	-50.902111
4386.718750	-51.233482
4390.625000	-50.868546
4394.531250	-50.846947
4398.437500	-50.978413
4402.343750	-51.252083
4406.250000	-50.771927
4410.156250	-50.692146
4414.062500	-51.389519
4417.968750	-49.859936
4421.875000	-50.133102
4425.781250	-50.126209
4429.687500	-49.967693
4433.593750	-49.933640
4437.500000	-49.644943
4441.406250	-49.801865
4445.312500	-48.792751
4449.218750	-49.462292
4453.125000	-48.640728
4457.031250	-48.459560
4460.937500	-47.998470
4464.843750	-47.344654
4468.750000	-46.962521
4472.656250	-46.917309
4476.562500	-46.580284
4480.468750	-46.408779
4484.375000	-45.457775
4488.281250	-44.476906
4492.187500	-44.074741
4496.093750	-43.598331
4500.000000	-43.318565
4503.906250	-42.635414
4507.812500	-42.335438
4511.718750	-41.355656
4515.625000	-41.954002
4519.531250	-42.188442
4523.437500	-41.946255
4527.343750	-42.050842
4531.250000	-42.342392
4535.156250	-42.418858
4539.062500	-42.912956
4542.968750	-43.435917
4546.875000	-44.144779
4550.781250	-45.013626
4554.687500	-44.895660
4558.593750	-45.799534
4562.500000	-46.083103
4566.406250	-46.907333
4570.312500	-46.562691
4574.218750	-47.700912
4578.125000	-48.349907
4582.031250	-48.747154
4585.937500	-48.656990
4589.843750	-49.120117
4593.750000	-48.945904
4597.656250	-49.337444
4601.562500	-49.739258
4605.468750	-50.178909
4609.375000	-50.001785
4613.281250	-50.464951
4617.187500	-50.796371
4621.093750	-50.343708
4625.000000	-50.738689
4628.906250	-50.387909
4632.812500	-51.341129
4636.718750	-51.034992
4640.625000	-51.151989
4644.531250	-50.653839
4648.437500	-50.682346
4652.343750	-50.484829
4656.250000	-51.063488
4660.156250	-51.018318
4664.062500	-51.375092
4667.968750	-51.073139
4671.875000	-51.371147
4675.781250	-50.755970
4679.687500	-50.474586
4683.593750	-50.691547
4687.500000	-50.013412
4691.406250	-50.281898
4695.312500	-50.583672
4699.218750	-49.430054
4703.125000	-49.596050
4707.031250	-48.973637
4710.937500	-49.205864
4714.843750	-48.342957
4718.750000	-48.556702
4722.656250	-48.727360
4726.562500	-47.573704
4730.468750	-47.741268
4734.375000	-46.668602
4738.281250	-46.005470
4742.187500	-46.295490
4746.093750	-45.712212
4750.000000	-44.500885
4753.906250	-44.652378
4757.812500	-44.366127
4761.718750	-44.203964
4765.625000	-43.010563
4769.531250	-42.242634
4773.437500	-42.340027
4777.343750	-41.376865
4781.250000	-41.863079
4785.156250	-42.253342
4789.062500	-42.068348
4792.968750	-42.520851
4796.875000	-42.037228
4800.781250	-42.767529
4804.687500	-43.505169
4808.593750	-43.134514
4812.500000	-44.152805
4816.406250	-45.087826
4820.312500	-45.167599
4824.218750	-45.754665
4828.125000	-46.414444
4832.031250	-46.531689
4835.937500	-46.526741
4839.843750	-47.058491
4843.750000	-48.230862
4847.656250	-47.969929
4851.562500	-47.836536
4855.468750	-48.074230
4859.375000	-48.117805
4863.281250	-49.128620
4867.187500	-49.330566
4871.093750	-49.369080
4875.000000	-49.799465
4878.906250	-49.397865
4882.812500	-50.227394
4886.718750	-50.173447
4890.625000	-49.923141
4894.531250	-50.733879
4898.437500	-50.134098
4902.343750	-50.105209
4906.250000	-50.482841
4910.156250	-50.674557
4914.062500	-50.218735
4917.968750	-50.506454
4921.875000	-50.771648
4925.781250	-50.506866
4929.687500	-50.347607
4933.593750	-50.144211
4937.500000	-50.614140
4941.406250	-49.858749
4945.312500	-49.992718
4949.218750	-49.482975
4953.125000	-49.378624
4957.031250	-48.961651
4960.937500	-49.335918
4964.843750	-48.999931
4968.750000	-48.767952
4972.656250	-48.741302
4976.562500	-48.418346
4980.468750	-48.141880
4984.375000	-47.837116
4988.281250	-46.587566
4992.187500	-46.880863
4996.093750	-46.679813
5000.000000	-45.796593
5003.906250	-45.993916
5007.812500	-45.449932
5011.718750	-44.912918
5015.625000	-44.417492
5019.531250	-43.900108
5023.437500	-43.951904
5027.343750	-43.712139
5031.250000	-42.986786
5035.156250	-41.622189
5039.062500	-41.844776
5042.968750	-41.464149
5046.875000	-41.281898
5050.781250	-41.576683
5054.687500	-41.635891
5058.593750	-42.001270
5062.500000	-42.688835
5066.406250	-42.902435
5070.312500	-43.132397
5074.218750	-43.663872
5078.125000	-43.984596
5082.031250	-44.651577
5085.937500	-44.746555
5089.843750	-45.191986
5093.750000	-45.626114
5097.656250	-47.127731
5101.562500	-46.389851
5105.468750	-46.877880
5109.375000	-47.086834
5113.281250	-46.980911
5117.187500	-47.667892
5121.093750	-48.157394
5125.000000	-48.434383
5128.906250	-48.667137
5132.812500	-48.778797
5136.718750	-48.792957
5140.625000	-48.785103
5144.531250	-49.605789
5148.437500	-48.957439
5152.343750	-49.759743
5156.250000	-49.105492
5160.156250	-49.575722
5164.062500	-48.675461
5167.968750	-48.847721
5171.875000	-49.438160
5175.781250	-50.027546
5179.687500	-49.632702
5183.593750	-49.739113
5187.500000	-48.986538
5191.406250	-49.221191
5195.312500	-49.487724
5199.218750	-48.665867
5203.125000	-48.879982
5207.031250	-48.322731
5210.937500	-48.714382
5214.843750	-48.644405
5218.750000	-48.535236
5222.656250	-47.686577
5226.562500	-47.634575
5230.468750	-47.928173
5234.375000	-47.463612
5238.281250	-47.067486
5242.187500	-46.857586
5246.093750	-47.300102
5250.000000	-46.724026
5253.906250	-46.014397
5257.812500	-45.395794
5261.718750	-45.194588
5265.625000	-44.762615
5269.531250	-44.476738
5273.437500	-44.644100
5277.343750	-44.044258
5281.250000	-43.311726
5285.156250	-42.638309
5289.062500	-42.191658
5292.968750	-41.868195
5296.875000	-41.586784
5300.781250	-41.445511
5304.687500	-41.408245
5308.593750	-40.990128
5312.500000	-41.614971
5316.406250	-41.541035
5320.312500	-41.339344
5324.218750	-41.649292
5328.125000	-41.734505
5332.031250	-42.404434
5335.937500	-42.628868
5339.843750	-43.218285
5343.750000	-43.505184
5347.656250	-44.359718
5351.562500	-44.069889
5355.468750	-44.186329
5359.375000	-44.477459
5363.281250	-44.912979
5367.187500	-45.275959
5371.093750	-45.564728
5375.000000	-46.229374
5378.906250	-45.849525
5382.812500	-46.132858
5386.718750	-46.614735
5390.625000	-46.584213
5394.531250	-47.067127
5398.437500	-46.961121
5402.343750	-46.970581
5406.250000	-47.396397
5410.156250	-47.591351
5414.062500	-47.209141
5417.968750	-47.666882
5421.875000	-47.891346
5425.781250	-47.497261
5429.687500	-48.107967
5433.593750	-48.100739
5437.500000	-47.981953
5441.406250	-47.168999
5445.312500	-47.456158
5449.218750	-47.698654
5453.125000	-48.248028
5457.031250	-47.753460
5460.937500	-47.671425
5464.843750	-47.018009
5468.750000	-46.799999
5472.656250	-47.018059
5476.562500	-46.805634
5480.468750	-46.264923
5484.375000	-46.255634
5488.281250	-46.585716
5492.187500	-45.734745
5496.093750	-46.356071
5500.000000	-45.291245
5503.906250	-45.747715
5507.812500	-45.325001
5511.718750	-45.164967
5515.625000	-44.231342
5519.531250	-44.258614
5523.437500	-43.461170
5527.343750	-43.393192
5531.250000	-44.231228
5535.156250	-43.009636
5539.062500	-42.614899
5542.968750	-42.751553
5546.875000	-42.622692
5550.781250	-41.806900
5554.687500	-41.651505
5558.593750	-41.401260
5562.500000	-41.786350
5566.406250	-41.304501
5570.312500	-41.691246
5574.218750	-40.973763
5578.125000	-41.874836
5582.031250	-41.344868
5585.937500	-41.149170
5589.843750	-41.598145
5593.750000	-41.564472
5597.656250	-42.211906
5601.562500	-41.784672
5605.468750	-42.666531
5609.375000	-42.216473
5613.281250	-42.491264
5617.187500	-43.054779
5621.093750	-43.161575
5625.000000	-43.476215
5628.906250	-43.815823
5632.812500	-44.598267
5636.718750	-44.357906
5640.625000	-43.843170
5644.531250	-44.158550
5648.437500	-44.944553
5652.343750	-44.388950
5656.250000	-44.365093
5660.156250	-45.160084
5664.062500	-45.356361
5667.968750	-45.099888
5671.875000	-46.154881
5675.781250	-45.574097
5679.687500	-45.673504
5683.593750	-45.327114
5687.500000	-45.663387
5691.406250	-45.549618
5695.312500	-45.480354
5699.218750	-45.189396
5703.125000	-45.672382
5707.031250	-45.892712
5710.937500	-45.455055
5714.843750	-44.996632
5718.750000	-45.486961
5722.656250	-45.187931
5726.562500	-45.128002
5730.468750	-45.127575
5734.375000	-45.465836
5738.281250	-45.139698
5742.187500	-44.964588
5746.093750	-44.716110
5750.000000	-44.264042
5753.906250	-44.783226
5757.812500	-44.173717
5761.718750	-44.184406
5765.625000	-44.708138
5769.531250	-44.179783
5773.437500	-44.549591
5777.343750	-44.213963
5781.250000	-43.883717
5785.156250	-42.970402
5789.062500	-43.386627
5792.968750	-42.964279
5796.875000	-43.190086
5800.781250	-42.912022
5804.687500	-43.086487
5808.593750	-42.748516
5812.500000	-42.390171
5816.406250	-42.263515
5820.312500	-42.450172
5824.218750	-42.167446
5828.125000	-41.975452
5832.031250	-41.713154
5835.937500	-42.457806
5839.843750	-41.397476
5843.750000	-41.105179
5847.656250	-41.680801
5851.562500	-42.227692
5855.468750	-41.700512
5859.375000	-42.168499
5863.281250	-41.737236
5867.187500	-41.850288
5871.093750	-42.636879
5875.000000	-42.712170
5878.906250	-42.033810
5882.812500	-42.122536
5886.718750	-42.177982
5890.625000	-42.170677
5894.531250	-42.675800
5898.437500	-43.276237
5902.343750	-43.111366
5906.250000	-42.710667
5910.156250	-43.009098
5914.062500	-43.036861
5917.968750	-42.699871
5921.875000	-43.171825
5925.781250	-43.637978
5929.687500	-43.918747
5933.593750	-43.713684
5937.500000	-43.515846
5941.406250	-43.096489
5945.312500	-43.518463
5949.218750	-43.726734
5953.125000	-44.050686
5957.031250	-43.933022
5960.937500	-44.156223
5964.843750	-44.685722
5968.750000	-44.480320
5972.656250	-44.432014
5976.562500	-44.901924
5980.468750	-45.239632
5984.375000	-44.745991
5988.281250	-44.867039
5992.187500	-44.986130
5996.093750	-45.378212
6000.000000	-45.923645
6003.906250	-45.335373
6007.812500	-45.033497
6011.718750	-45.639500
6015.625000	-45.111477
6019.531250	-44.992302
6023.437500	-45.573563
6027.343750	-45.685333
6031.250000	-45.349895
6035.156250	-45.169220
6039.062500	-45.651550
6042.968750	-44.665573
6046.875000	-44.921825
6050.781250	-44.851467
6054.687500	-45.186668
6058.593750	-44.804077
6062.500000	-44.479900
6066.406250	-44.521904
6070.312500	-44.865593
6074.218750	-44.623413
6078.125000	-43.990444
6082.031250	-44.330788
6085.937500	-44.210075
6089.843750	-44.085041
6093.750000	-44.214596
6097.656250	-43.621876
6101.562500	-44.227711
6105.468750	-43.776131
6109.375000	-43.405796
6113.281250	-43.669250
6117.187500	-42.579933
6121.093750	-42.518051
6125.000000	-43.058315
6128.906250	-42.464153
6132.812500	-42.853344
6136.718750	-42.891758
6140.625000	-42.801914
6144.531250	-42.220417
6148.437500	-42.206085
6152.343750	-42.612015
6156.250000	-43.058197
6160.156250	-42.862999
6164.062500	-42.769299
6167.968750	-42.303162
6171.875000	-43.152870
6175.781250	-42.799278
6179.687500	-43.254086
6183.593750	-43.722496
6187.500000	-43.548580
6191.406250	-43.822041
6195.312500	-44.120907
6199.218750	-44.423424
6203.125000	-44.732628
6207.031250	-45.146931
6210.937500	-45.616005
6214.843750	-45.336136
6218.750000	-46.588825
6222.656250	-46.315514
6226.562500	-46.605762
6230.468750	-46.513515
6234.375000	-46.295433
6238.281250	-47.263542
6242.187500	-46.998276
6246.093750	-47.580631
6250.000000	-47.709164
6253.906250	-47.845249
6257.812500	-48.218906
6261.718750	-47.818573
6265.625000	-48.312393
6269.531250	-48.150234
6273.437500	-48.405445
6277.343750	-48.162556
6281.250000	-48.669033
6285.156250	-48.934723
6289.062500	-48.864788
6292.968750	-48.839413
6296.875000	-48.234783
6300.781250	-48.583931
6304.687500	-48.490116
6308.593750	-49.040787
6312.500000	-48.907482
6316.406250	-49.541611
6320.312500	-50.405766
6324.218750	-49.263538
6328.125000	-49.288219
6332.031250	-48.221161
6335.937500	-48.532272
6339.843750	-47.753990
6343.750000	-48.605099
6347.656250	-47.808487
6351.562500	-48.691822
6355.468750	-48.347439
6359.375000	-47.355156
6363.281250	-47.305286
6367.187500	-47.943409
6371.093750	-47.199085
6375.000000	-46.859821
6378.906250	-46.267567
6382.812500	-46.389114
6386.718750	-46.247265
6390.625000	-46.435066
6394.531250	-45.730209
6398.437500	-45.303612
6402.343750	-44.741165
6406.250000	-45.435543
6410.156250	-45.758560
6414.062500	-44.396576
6417.968750	-44.806660
6421.875000	-45.151009
6425.781250	-45.106689
6429.687500	-45.173248
6433.593750	-45.370796
6437.500000	-45.169361
6441.406250	-45.910374
6445.312500	-46.028088
6449.218750	-47.113361
6453.125000	-47.588177
6457.031250	-47.974476
6460.937500	-47.957680
6464.843750	-48.049702
6468.750000	-48.091370
6472.656250	-48.701824
6476.562500	-49.648922
6480.468750	-49.167831
6484.375000	-50.211773
6488.281250	-50.328014
6492.187500	-50.501549
6496.093750	-51.056313
6500.000000	-50.810780
6503.906250	-51.769997
6507.812500	-51.650696
6511.718750	-52.024174
6515.625000	-52.795208
6519.531250	-53.059700
6523.437500	-52.298275
6527.343750	-52.995060
6531.250000	-53.040188
6535.156250	-53.476433
6539.062500	-53.138977
6542.968750	-54.463467
6546.875000	-53.925411
6550.781250	-53.846077
6554.687500	-54.172131
6558.593750	-54.659111
6562.500000	-54.126621
6566.406250	-54.190857
6570.312500	-54.312347
6574.218750	-54.431953
6578.125000	-54.196754
6582.031250	-54.381687
6585.937500	-53.857845
6589.843750	-53.477234
6593.750000	-53.321583
6597.656250	-53.809341
6601.562500	-54.068710
6605.468750	-53.445728
6609.375000	-53.302647
6613.281250	-53.119270
6617.187500	-53.472755
6621.093750	-52.784554
6625.000000	-52.487926
6628.906250	-52.323700
6632.812500	-51.832359
6636.718750	-51.405220
6640.625000	-51.818447
6644.531250	-51.112255
6648.437500	-50.309883
6652.343750	-50.037407
6656.250000	-50.169289
6660.156250	-49.945072
6664.062500	-50.311913
6667.968750	-49.989418
6671.875000	-49.687187
6675.781250	-49.588528
6679.687500	-48.912960
6683.593750	-49.276608
6687.500000	-48.777660
6691.406250	-50.136826
6695.312500	-49.992271
6699.218750	-50.192719
6703.125000	-50.937954
6707.031250	-51.378975
6710.937500	-51.632511
6714.843750	-52.072460
6718.750000	-52.958241
6722.656250	-53.163597
6726.562500	-53.597729
6730.468750	-54.532795
6734.375000	-54.556278
6738.281250	-54.861588
6742.187500	-55.608521
6746.093750	-55.969646
6750.000000	-56.203812
6753.906250	-56.625126
6757.812500	-57.281300
6761.718750	-57.172752
6765.625000	-57.338787
6769.531250	-58.054169
6773.437500	-58.590233
6777.343750	-58.408722
6781.250000	-59.351833
6785.156250	-59.050182
6789.062500	-59.319595
6792.968750	-59.681595
6796.875000	-59.215961
6800.781250	-59.796703
6804.687500	-59.523914
6808.593750	-59.542477
6812.500000	-60.138824
6816.406250	-60.357265
6820.312500	-60.242905
6824.218750	-59.963535
6828.125000	-60.307289
6832.031250	-60.301113
6835.937500	-60.132462
6839.843750	-60.871479
6843.750000	-61.095291
6847.656250	-60.608063
6851.562500	-60.577244
6855.468750	-60.424343
6859.375000	-60.173588
6863.281250	-60.012604
6867.187500	-59.876415
6871.093750	-60.814236
6875.000000	-59.998978
6878.906250	-59.241409
6882.812500	-58.842232
6886.718750	-59.355778
6890.625000	-58.858295
6894.531250	-59.069725
6898.437500	-58.424793
6902.343750	-57.794682
6906.250000	-57.732742
6910.156250	-57.437397
6914.062500	-57.174206
6917.968750	-56.688873
6921.875000	-56.352364
6925.781250	-55.793110
6929.687500	-55.832874
6933.593750	-55.630768
6937.500000	-55.691742
6941.406250	-55.276276
6945.312500	-55.948120
6949.218750	-55.996037
6953.125000	-56.209251
6957.031250	-56.068119
6960.937500	-56.919842
6964.843750	-58.056911
6968.750000	-57.715485
6972.656250	-58.440098
6976.562500	-59.172657
6980.468750	-59.735397
6984.375000	-60.342407
6988.281250	-60.434383
6992.187500	-60.935898
6996.093750	-61.310188
7000.000000	-62.222603
7003.906250	-62.098633
7007.812500	-63.379044
7011.718750	-63.985992
7015.625000	-63.750580
7019.531250	-64.673157
7023.437500	-64.649658
7027.343750	-65.277039
7031.250000	-65.512650
7035.156250	-66.193344
7039.062500	-66.579300
7042.968750	-66.467064
7046.875000	-66.564514
7050.781250	-67.465141
7054.687500	-67.110603
7058.593750	-67.766335
7062.500000	-67.651222
7066.406250	-68.469521
7070.312500	-67.794357
7074.218750	-68.255806
7078.125000	-69.089447
7082.031250	-68.976234
7085.937500	-68.804459
7089.843750	-68.415543
7093.750000	-68.467514
7097.656250	-68.518349
7101.562500	-68.321480
7105.468750	-69.006256
7109.375000	-69.402954
7113.281250	-69.273911
7117.187500	-68.531166
7121.093750	-68.810623
7125.000000	-68.507874
7128.906250	-68.469368
7132.812500	-69.023750
7136.718750	-68.252014
7140.625000	-68.717911
7144.531250	-67.804871
7148.437500	-67.798279
7152.343750	-67.147079
7156.250000	-67.673141
7160.156250	-67.062767
7164.062500	-66.246338
7167.968750	-66.272652
7171.875000	-66.352455
7175.781250	-65.063713
7179.687500	-64.954659
7183.593750	-64.301880
7187.500000	-63.844635
7191.406250	-63.629025
7195.312500	-63.333611
7199.218750	-63.556629
7203.125000	-63.119537
7207.031250	-63.522354
7210.937500	-63.084419
7214.843750	-62.960548
7218.750000	-63.267159
7222.656250	-63.904732
7226.562500	-64.792671
7230.468750	-64.883163
7234.375000	-65.777107
7238.281250	-65.584366
7242.187500	-67.155228
7246.093750	-67.314491
7250.000000	-67.462479
7253.906250	-68.211327
7257.812500	-68.002312
7261.718750	-69.187332
7265.625000	-69.797707
7269.531250	-70.274506
7273.437500	-70.788940
7277.343750	-71.104729
7281.250000	-70.935730
7285.156250	-71.675117
7289.062500	-72.243156
7292.968750	-72.743103
7296.875000	-73.046326
7300.781250	-73.326691
7304.687500	-73.135475
7308.593750	-73.645386
7312.500000	-73.810562
7316.406250	-73.638275
7320.312500	-74.133774
7324.218750	-73.997093
7328.125000	-74.136070
7332.031250	-74.856857
7335.937500	-74.674469
7339.843750	-74.456093
7343.750000	-74.880096
7347.656250	-75.427673
7351.562500	-74.895584
7355.468750	-74.952080
7359.375000	-75.629326
7363.281250	-74.919586
7367.187500	-74.550308
7371.093750	-74.906303
7375.000000	-74.709610
7378.906250	-75.050064
7382.812500	-74.502098
7386.718750	-74.629974
7390.625000	-74.585754
7394.531250	-74.084831
7398.437500	-73.764206
7402.343750	-73.539894
7406.250000	-73.281036
7410.156250	-72.916054
7414.062500	-72.540833
7417.968750	-72.045433
7421.875000	-72.050659
7425.781250	-71.443420
7429.687500	-70.498253
7433.593750	-70.447083
7437.500000	-70.217293
7441.406250	-69.339432
7445.312500	-68.748520
7449.218750	-68.071701
7453.125000	-68.376617
7457.031250	-67.077171
7460.937500	-67.552704
7464.843750	-66.586304
7468.750000	-66.292503
7472.656250	-66.921799
7476.562500	-66.092926
7480.468750	-66.736038
7484.375000	-66.448250
7488.281250	-67.207222
7492.187500	-67.327087
7496.093750	-68.255516
7500.000000	-68.610992
7503.906250	-69.110802
7507.812500	-69.585709
7511.718750	-69.828041
7515.625000	-70.381683
7519.531250	-71.125816
7523.437500	-71.093117
7527.343750	-71.820801
7531.250000	-73.027634
7535.156250	-73.225418
7539.062500	-73.201660
7542.968750	-73.618156
7546.875000	-74.322578
7550.781250	-74.729942
7554.687500	-75.568924
7558.593750	-74.801605
7562.500000	-75.938118
7566.406250	-75.902290
7570.312500	-76.318047
7574.218750	-76.548462
7578.125000	-76.978210
7582.031250	-77.410469
7585.937500	-77.416855
7589.843750	-77.826614
7593.750000	-77.920868
7597.656250	-78.144569
7601.562500	-78.289963
7605.468750	-78.203598
7609.375000	-78.722809
7613.281250	-78.661293
7617.187500	-78.749275
7621.093750	-78.462921
7625.000000	-78.729958
7628.906250	-78.744987
7632.812500	-78.889175
7636.718750	-78.918053
7640.625000	-78.518547
7644.531250	-78.552963
7648.437500	-78.582542
7652.343750	-78.760208
7656.250000	-78.771156
7660.156250	-78.567719
7664.062500	-78.407608
7667.968750	-78.362984
7671.875000	-78.496399
7675.781250	-78.215073
7679.687500	-78.171188
7683.593750	-78.387321
7687.500000	-78.107689
7691.406250	-78.165092
7695.312500	-78.453392
7699.218750	-78.222481
7703.125000	-78.369263
7707.031250	-77.649330
7710.937500	-78.095367
7714.843750	-77.893867
7718.750000	-77.946541
7722.656250	-78.018456
7726.562500	-78.282173
7730.468750	-78.150734
7734.375000	-78.631859
7738.281250	-78.790916
7742.187500	-78.988472
7746.093750	-78.972725
7750.000000	-78.925514
7753.906250	-79.143890
7757.812500	-79.476692
7761.718750	-79.518097
7765.625000	-79.856201
7769.531250	-79.785957
7773.437500	-79.823364
7777.343750	-79.842491
7781.250000	-79.918213
7785.156250	-80.043587
7789.062500	-79.919609
7792.968750	-80.026527
7796.875000	-80.051170
7800.781250	-80.056389
7804.687500	-80.035278
7808.593750	-80.035530
7812.500000	-80.058853
7816.406250	-80.049118
7820.312500	-80.068443
7824.218750	-80.085373
7828.125000	-80.097618
7832.031250	-80.094521
7835.937500	-80.093575
7839.843750	-80.089088
7843.750000	-80.098900
7847.656250	-80.104218
7851.562500	-80.102875
7855.468750	-80.110176
7859.375000	-80.108299
7863.281250	-80.110458
7867.187500	-80.116364
7871.093750	-80.117210
7875.000000	-80.119232
7878.906250	-80.121895
7882.812500	-80.124023
7886.718750	-80.125687
7890.625000	-80.128952
7894.531250	-80.131149
7898.437500	-80.132744
7902.343750	-80.134247
7906.250000	-80.136101
7910.156250	-80.137962
7914.062500	-80.139603
7917.968750	-80.141144
7921.875000	-80.142532
7925.781250	-80.143906
7929.687500	-80.145226
7933.593750	-80.146484
7937.500000	-80.147652
7941.406250	-80.148750
7945.312500	-80.149788
7949.218750	-80.150757
7953.125000	-80.151627
7957.031250	-80.152443
7960.937500	-80.153191
7964.843750	-80.153870
7968.750000	-80.154480
7972.656250	-80.155006
7976.562500	-80.155464
7980.468750	-80.155853
7984.375000	-80.156174
7988.281250	-80.156418
7992.187500	-80.156601
7996.093750	-80.156700
