Frequency (Hz)	Level (dB)
3.906250	-74.554344
7.812500	-69.177681
11.718750	-64.784172
15.625000	-62.320965
19.531250	-61.183865
23.437500	-60.716515
27.343750	-60.717121
31.250000	-60.910320
35.156250	-61.530800
39.062500	-62.112743
42.968750	-62.570427
46.875000	-63.083580
50.781250	-63.219368
54.687500	-63.776993
58.593750	-63.320541
62.500000	-64.102554
66.406250	-63.937740
70.312500	-63.659264
74.218750	-63.167675
78.125000	-62.982121
82.031250	-63.169319
85.937500	-63.293621
89.843750	-61.236229
93.750000	-61.376297
97.656250	-61.314499
101.562500	-60.746258
105.468750	-60.507404
109.375000	-60.068863
113.281250	-59.228725
117.187500	-57.458027
121.093750	-53.871738
125.000000	-57.684937
128.906250	-57.220276
132.812500	-57.332958
136.718750	-56.266827
140.625000	-55.516777
144.531250	-55.926079
148.437500	-57.064331
152.343750	-58.315186
156.250000	-59.856869
160.156250	-60.764359
164.062500	-61.941658
167.968750	-63.037235
171.875000	-64.365944
175.781250	-65.642311
179.687500	-65.070076
183.593750	-65.887665
187.500000	-67.019981
191.406250	-66.831909
195.312500	-67.329468
199.218750	-67.772499
203.125000	-67.812363
207.031250	-68.092476
210.937500	-67.709641
214.843750	-67.736115
218.750000	-67.528992
222.656250	-68.033928
226.562500	-67.546883
230.468750	-67.091003
234.375000	-66.569328
238.281250	-66.831551
242.187500	-65.710350
246.093750	-65.111725
250.000000	-64.385384
253.906250	-62.436218
257.812500	-62.358536
261.718750	-61.001381
265.625000	-59.047195
269.531250	-57.337406
273.437500	-55.814709
277.343750	-54.343483
281.250000	-54.393173
285.156250	-54.082668
289.062500	-56.010944
292.968750	-57.142502
296.875000	-57.585720
300.781250	-58.201725
304.687500	-58.958385
308.593750	-60.142277
312.500000	-62.122017
316.406250	-63.450329
320.312500	-65.412491
324.218750	-66.095177
328.125000	-66.808304
332.031250	-66.478951
335.937500	-67.378349
339.843750	-67.748604
343.750000	-67.536110
347.656250	-68.080032
351.562500	-67.459480
355.468750	-67.229134
359.375000	-68.387947
363.281250	-67.371841
367.187500	-67.407227
371.093750	-66.180817
375.000000	-65.745094
378.906250	-65.069908
382.812500	-65.130714
386.718750	-64.059921
390.625000	-63.363380
394.531250	-62.843128
398.437500	-61.548187
402.343750	-59.656433
406.250000	-58.448730
410.156250	-56.977486
414.062500	-55.518417
417.968750	-54.990650
421.875000	-55.517815
425.781250	-56.650017
429.687500	-58.733364
433.593750	-60.094383
437.500000	-60.983105
441.406250	-62.844814
445.312500	-63.360867
449.218750	-64.002174
453.125000	-65.485405
457.031250	-65.699570
460.937500	-65.677887
464.843750	-66.381287
468.750000	-66.240082
472.656250	-66.691978
476.562500	-67.371414
480.468750	-67.279320
484.375000	-66.981033
488.281250	-67.071533
492.187500	-66.952286
496.093750	-66.883041
500.000000	-66.964180
503.906250	-66.984070
507.812500	-65.758263
511.718750	-65.718002
515.625000	-64.974052
519.531250	-64.503006
523.437500	-64.065582
527.343750	-63.307068
531.250000	-61.567589
535.156250	-60.061653
539.062500	-58.528728
542.968750	-56.696400
546.875000	-55.087543
550.781250	-53.498173
554.687500	-52.304859
558.593750	-53.143501
562.500000	-54.003857
566.406250	-55.896931
570.312500	-57.433834
574.218750	-59.092396
578.125000	-60.366585
582.031250	-61.546898
585.937500	-63.123302
589.843750	-63.446087
593.750000	-64.129128
597.656250	-64.004860
601.562500	-65.305161
605.468750	-65.986580
609.375000	-66.325340
613.281250	-66.840958
617.187500	-66.703926
621.093750	-66.603828
625.000000	-66.812531
628.906250	-66.889236
632.812500	-66.495163
636.718750	-66.300064
640.625000	-66.109184
644.531250	-65.614197
648.437500	-65.239204
652.343750	-64.798256
656.250000	-64.344887
660.156250	-63.869808
664.062500	-62.363617
667.968750	-61.969360
671.875000	-60.242695
675.781250	-59.471092
679.687500	-57.008961
683.593750	-54.210220
687.500000	-52.351410
691.406250	-52.013206
695.312500	-52.748341
699.218750	-53.437832
703.125000	-54.761860
707.031250	-57.570679
710.937500	-59.245163
714.843750	-59.828033
718.750000	-61.261925
722.656250	-62.437069
726.562500	-62.433346
730.468750	-63.549641
734.375000	-63.603203
738.281250	-63.641319
742.187500	-64.388489
746.093750	-64.971611
750.000000	-65.166039
753.906250	-65.579224
757.812500	-65.694878
761.718750	-65.959183
765.625000	-65.607452
769.531250	-65.573090
773.437500	-65.647438
777.343750	-65.099136
781.250000	-65.760323
785.156250	-64.431503
789.062500	-63.990925
792.968750	-63.128933
796.875000	-62.261536
800.781250	-61.547775
804.687500	-60.505413
808.593750	-59.036301
812.500000	-57.703625
816.406250	-55.563919
820.312500	-53.445152
824.218750	-52.283409
828.125000	-52.217133
832.031250	-53.093857
835.937500	-54.181038
839.843750	-55.709354
843.750000	-55.963337
847.656250	-58.250523
851.562500	-59.731342
855.468750	-60.838177
859.375000	-62.029736
863.281250	-62.748276
867.187500	-63.116882
871.093750	-63.617447
875.000000	-64.228874
878.906250	-64.962143
882.812500	-64.420990
886.718750	-64.928818
890.625000	-65.010109
894.531250	-65.619034
898.437500	-65.395523
902.343750	-64.645981
906.250000	-64.923927
910.156250	-64.574585
914.062500	-64.356056
917.968750	-63.916538
921.875000	-63.553391
925.781250	-63.410023
929.687500	-62.811272
933.593750	-61.630611
937.500000	-60.852673
941.406250	-59.559151
945.312500	-58.998520
949.218750	-57.204620
953.125000	-55.221088
957.031250	-53.025726
960.937500	-51.028881
964.843750	-49.172680
968.750000	-50.268803
972.656250	-50.400532
976.562500	-51.930897
980.468750	-53.767204
984.375000	-56.167511
988.281250	-57.830704
992.187500	-59.275593
996.093750	-60.501545
1000.000000	-60.666519
1003.906250	-61.040955
1007.812500	-62.368534
1011.718750	-63.414860
1015.625000	-63.233337
1019.531250	-63.236370
1023.437500	-64.227364
1027.343750	-64.217293
1031.250000	-64.434158
1035.156250	-64.240417
1039.062500	-64.477356
1042.968750	-63.832249
1046.875000	-63.048141
1050.781250	-63.190170
1054.687500	-63.149136
1058.593750	-62.893463
1062.500000	-62.445587
1066.406250	-61.864635
1070.312500	-60.288353
1074.218750	-59.304413
1078.125000	-59.016953
1082.031250	-58.146980
1085.937500	-55.802353
1089.843750	-54.733490
1093.750000	-51.874298
1097.656250	-49.276756
1101.562500	-47.271862
1105.468750	-48.476357
1109.375000	-49.269455
1113.281250	-50.654938
1117.187500	-50.977276
1121.093750	-52.138580
1125.000000	-53.988396
1128.906250	-55.373695
1132.812500	-57.438416
1136.718750	-58.371029
1140.625000	-59.251129
1144.531250	-59.815289
1148.437500	-60.939850
1152.343750	-60.809422
1156.250000	-61.875896
1160.156250	-62.196911
1164.062500	-63.062641
1167.968750	-63.051437
1171.875000	-63.372311
1175.781250	-63.256607
1179.687500	-63.460609
1183.593750	-62.601532
1187.500000	-62.528374
1191.406250	-61.929256
1195.312500	-61.424896
1199.218750	-61.410965
1203.125000	-60.173595
1207.031250	-59.746925
1210.937500	-59.141636
1214.843750	-58.152676
1218.750000	-56.443211
1222.656250	-55.445877
1226.562500	-53.670380
1230.468750	-50.678394
1234.375000	-49.106113
1238.281250	-47.427311
1242.187500	-47.590965
1246.093750	-48.156918
1250.000000	-49.248009
1253.906250	-49.774837
1257.812500	-51.034737
1261.718750	-54.271297
1265.625000	-55.509491
1269.531250	-56.656326
1273.437500	-57.543549
1277.343750	-58.495808
1281.250000	-59.791725
1285.156250	-60.067657
1289.062500	-60.319820
1292.968750	-60.765339
1296.875000	-60.671932
1300.781250	-61.266563
1304.687500	-61.583557
1308.593750	-61.264912
1312.500000	-61.117432
1316.406250	-60.643124
1320.312500	-60.678078
1324.218750	-61.020832
1328.125000	-60.451397
1332.031250	-59.585464
1335.937500	-59.230663
1339.843750	-59.005596
1343.750000	-58.174587
1347.656250	-56.413860
1351.562500	-56.413338
1355.468750	-54.799404
1359.375000	-52.772369
1363.281250	-51.507458
1367.187500	-48.638725
1371.093750	-46.464664
1375.000000	-44.768703
1378.906250	-45.236832
1382.812500	-46.191074
1386.718750	-47.124756
1390.625000	-47.498299
1394.531250	-48.008717
1398.437500	-50.239365
1402.343750	-51.900715
1406.250000	-53.953541
1410.156250	-55.386883
1414.062500	-55.725990
1417.968750	-56.669403
1421.875000	-57.820213
1425.781250	-57.345936
1429.687500	-57.949253
1433.593750	-58.653385
1437.500000	-59.241764
1441.406250	-58.625023
1445.312500	-59.041866
1449.218750	-58.943012
1453.125000	-59.099590
1457.031250	-58.650249
1460.937500	-58.472797
1464.843750	-57.607220
1468.750000	-56.911041
1472.656250	-57.059517
1476.562500	-55.939438
1480.468750	-55.616135
1484.375000	-55.005291
1488.281250	-53.683960
1492.187500	-52.396866
1496.093750	-51.202644
1500.000000	-49.103596
1503.906250	-46.913067
1507.812500	-44.683289
1511.718750	-42.993267
1515.625000	-43.249210
1519.531250	-44.341774
1523.437500	-45.174496
1527.343750	-45.569195
1531.250000	-46.643993
1535.156250	-48.946682
1539.062500	-49.590294
1542.968750	-50.994953
1546.875000	-52.261120
1550.781250	-54.378422
1554.687500	-54.770275
1558.593750	-54.762157
1562.500000	-55.623817
1566.406250	-56.001595
1570.312500	-56.460785
1574.218750	-56.973618
1578.125000	-57.060539
1582.031250	-56.588276
1585.937500	-56.373981
1589.843750	-56.146290
1593.750000	-56.086632
1597.656250	-56.191654
1601.562500	-55.808914
1605.468750	-55.154751
1609.375000	-55.015350
1613.281250	-54.315212
1617.187500	-53.487453
1621.093750	-52.612423
1625.000000	-51.250721
1628.906250	-50.635468
1632.812500	-48.656273
1636.718750	-47.508327
1640.625000	-44.302219
1644.531250	-42.121868
1648.437500	-41.547897
1652.343750	-41.503101
1656.250000	-42.130047
1660.156250	-43.180576
1664.062500	-43.212124
1667.968750	-44.070953
1671.875000	-45.564243
1675.781250	-47.794331
1679.687500	-49.093834
1683.593750	-50.222523
1687.500000	-52.300747
1691.406250	-51.980522
1695.312500	-53.762360
1699.218750	-53.298111
1703.125000	-54.272308
1707.031250	-54.097664
1710.937500	-54.578392
1714.843750	-54.835411
1718.750000	-54.744816
1722.656250	-55.165558
1726.562500	-55.124275
1730.468750	-54.560089
1734.375000	-54.414879
1738.281250	-54.241970
1742.187500	-53.635780
1746.093750	-53.140266
1750.000000	-52.118599
1753.906250	-51.469181
1757.812500	-51.133087
1761.718750	-49.816761
1765.625000	-48.654816
1769.531250	-46.998486
1773.437500	-45.408501
1777.343750	-43.718731
1781.250000	-41.151154
1785.156250	-39.750008
1789.062500	-40.064514
1792.968750	-41.625149
1796.875000	-41.422085
1800.781250	-42.155258
1804.687500	-43.855034
1808.593750	-44.389252
1812.500000	-45.573910
1816.406250	-46.217228
1820.312500	-48.368652
1824.218750	-48.737682
1828.125000	-49.800007
1832.031250	-50.674904
1835.937500	-51.079529
1839.843750	-52.160084
1843.750000	-52.053448
1847.656250	-52.559326
1851.562500	-53.704147
1855.468750	-52.487736
1859.375000	-52.189514
1863.281250	-52.581680
1867.187500	-52.354134
1871.093750	-52.798859
1875.000000	-51.573090
1878.906250	-51.420719
1882.812500	-51.731762
1886.718750	-50.232803
1890.625000	-48.800629
1894.531250	-48.511528
1898.437500	-47.932491
1902.343750	-46.648903
1906.250000	-44.854794
1910.156250	-42.383549
1914.062500	-40.750881
1917.968750	-39.861237
1921.875000	-38.766373
1925.781250	-39.402172
1929.687500	-39.853649
1933.593750	-40.994434
1937.500000	-42.014450
1941.406250	-42.533127
1945.312500	-43.140099
1949.218750	-43.135796
1953.125000	-45.347298
1957.031250	-46.176216
1960.937500	-48.010880
1964.843750	-47.908913
1968.750000	-48.358490
1972.656250	-49.122105
1976.562500	-49.770359
1980.468750	-50.599815
1984.375000	-51.032104
1988.281250	-50.747196
1992.187500	-51.216560
1996.093750	-50.530487
2000.000000	-51.303627
2003.906250	-49.942150
2007.812500	-50.268372
2011.718750	-49.805191
2015.625000	-49.702068
2019.531250	-48.913559
2023.437500	-48.032646
2027.343750	-47.711376
2031.250000	-46.760181
2035.156250	-45.267181
2039.062500	-44.300396
2042.968750	-43.214882
2046.875000	-41.965019
2050.781250	-39.490158
2054.687500	-37.762917
2058.593750	-37.239792
2062.500000	-38.009102
2066.406250	-39.091640
2070.312500	-39.635956
2074.218750	-39.924484
2078.125000	-40.802814
2082.031250	-41.297813
2085.937500	-42.520664
2089.843750	-42.748783
2093.750000	-44.088249
2097.656250	-45.161228
2101.562500	-45.771179
2105.468750	-46.530293
2109.375000	-47.031414
2113.281250	-47.793831
2117.187500	-47.883751
2121.093750	-47.649506
2125.000000	-47.733704
2128.906250	-48.308147
2132.812500	-48.714790
2136.718750	-48.045921
2140.625000	-48.595455
2144.531250	-48.246868
2148.437500	-47.255844
2152.343750	-46.937912
2156.250000	-46.677025
2160.156250	-46.530361
2164.062500	-45.330524
2167.968750	-43.953709
2171.875000	-43.012520
2175.781250	-42.684799
2179.687500	-41.954613
2183.593750	-39.875526
2187.500000	-38.859882
2191.406250	-38.165127
2195.312500	-37.558403
2199.218750	-37.025188
2203.125000	-37.881462
2207.031250	-38.786549
2210.937500	-38.769276
2214.843750	-39.059544
2218.750000	-39.314342
2222.656250	-39.801189
2226.562500	-41.056988
2230.468750	-41.409035
2234.375000	-42.894302
2238.281250	-43.526699
2242.187500	-43.943501
2246.093750	-44.740067
2250.000000	-44.794205
2253.906250	-45.615772
2257.812500	-45.923214
2261.718750	-46.343742
2265.625000	-45.822136
2269.531250	-46.058960
2273.437500	-46.252731
2277.343750	-46.181324
2281.250000	-46.014381
2285.156250	-45.804607
2289.062500	-45.406025
2292.968750	-44.402416
2296.875000	-44.567223
2300.781250	-43.640015
2304.687500	-42.932869
2308.593750	-42.378410
2312.500000	-41.416546
2316.406250	-40.585094
2320.312500	-39.467445
2324.218750	-38.367416
2328.125000	-36.988693
2332.031250	-36.669117
2335.937500	-37.019047
2339.843750	-36.837799
2343.750000	-37.531208
2347.656250	-37.772495
2351.562500	-38.247681
2355.468750	-39.163406
2359.375000	-40.353832
2363.281250	-40.177925
2367.187500	-40.687595
2371.093750	-40.509537
2375.000000	-42.080219
2378.906250	-43.318401
2382.812500	-43.148708
2386.718750	-43.699089
2390.625000	-44.202457
2394.531250	-43.964375
2398.437500	-44.548645
2402.343750	-44.380112
2406.250000	-45.014614
2410.156250	-45.403202
2414.062500	-44.586830
2417.968750	-44.076111
2421.875000	-44.509529
2425.781250	-44.720703
2429.687500	-44.115074
2433.593750	-44.080147
2437.500000	-43.715336
2441.406250	-43.532623
2445.312500	-42.757156
2449.218750	-41.565113
2453.125000	-40.663025
2457.031250	-40.053589
2460.937500	-39.164494
2464.843750	-37.511150
2468.750000	-37.896877
2472.656250	-37.117401
2476.562500	-37.210625
2480.468750	-37.087120
2484.375000	-37.251740
2488.281250	-37.418827
2492.187500	-38.401062
2496.093750	-38.629478
2500.000000	-38.971931
2503.906250	-39.237366
2507.812500	-40.153294
2511.718750	-40.792889
2515.625000	-41.677097
2519.531250	-42.420826
2523.437500	-43.007679
2527.343750	-43.052608
2531.250000	-43.553238
2535.156250	-44.640156
2539.062500	-44.492325
2542.968750	-44.711155
2546.875000	-45.085503
2550.781250	-44.417324
2554.687500	-44.795151
2558.593750	-44.747940
2562.500000	-45.048996
2566.406250	-44.650162
2570.312500	-44.057487
2574.218750	-44.208080
2578.125000	-42.889481
2582.031250	-42.657429
2585.937500	-42.566330
2589.843750	-41.673836
2593.750000	-40.401569
2597.656250	-38.837276
2601.562500	-38.824856
2605.468750	-37.844494
2609.375000	-36.771210
2613.281250	-36.560669
2617.187500	-36.892113
2621.093750	-37.013512
2625.000000	-38.165657
2628.906250	-38.245155
2632.812500	-38.546116
2636.718750	-39.949512
2640.625000	-39.649563
2644.531250	-39.378590
2648.437500	-40.314022
2652.343750	-40.759716
2656.250000	-41.096031
2660.156250	-42.315304
2664.062500	-43.491550
2667.968750	-43.647621
2671.875000	-44.130020
2675.781250	-45.351894
2679.687500	-45.218090
2683.593750	-45.972301
2687.500000	-45.643738
2691.406250	-45.668434
2695.312500	-45.533989
2699.218750	-45.404522
2703.125000	-45.016384
2707.031250	-44.789669
2710.937500	-44.413582
2714.843750	-44.173119
2718.750000	-43.828873
2722.656250	-43.250504
2726.562500	-42.110065
2730.468750	-41.516968
2734.375000	-40.632523
2738.281250	-39.122478
2742.187500	-39.057590
2746.093750	-37.315582
2750.000000	-36.935303
2753.906250	-36.780983
2757.812500	-37.131649
2761.718750	-37.425945
2765.625000	-38.481644
2769.531250	-38.842064
2773.437500	-39.685997
2777.343750	-40.376427
2781.250000	-41.463352
2785.156250	-41.905006
2789.062500	-42.728935
2792.968750	-42.613735
2796.875000	-42.485985
2800.781250	-43.487476
2804.687500	-44.496693
2808.593750	-45.003822
2812.500000	-45.551052
2816.406250	-45.574604
2820.312500	-44.945377
2824.218750	-45.397804
2828.125000	-46.282364
2832.031250	-45.359383
2835.937500	-46.129021
2839.843750	-46.149139
2843.750000	-45.477150
2847.656250	-45.285782
2851.562500	-44.842113
2855.468750	-44.076622
2859.375000	-43.968410
2863.281250	-42.629349
2867.187500	-42.160275
2871.093750	-41.173889
2875.000000	-40.347328
2878.906250	-39.173809
2882.812500	-37.599888
2886.718750	-37.755272
2890.625000	-38.118366
2894.531250	-38.174137
2898.437500	-38.354549
2902.343750	-38.960411
2906.250000	-40.080318
2910.156250	-40.648209
2914.062500	-40.935478
2917.968750	-41.290611
2921.875000	-41.698483
2925.781250	-41.725689
2929.687500	-42.452991
2933.593750	-43.901154
2937.500000	-43.667694
2941.406250	-43.824879
2945.312500	-44.170139
2949.218750	-44.697315
2953.125000	-44.953281
2957.031250	-46.027256
2960.937500	-45.928600
2964.843750	-45.748486
2968.750000	-46.317768
2972.656250	-46.718117
2976.562500	-45.902134
2980.468750	-45.945122
2984.375000	-45.944016
2988.281250	-45.308388
2992.187500	-44.503601
2996.093750	-44.980469
3000.000000	-43.431129
3003.906250	-43.225788
3007.812500	-41.474133
3011.718750	-40.334644
3015.625000	-39.998852
3019.531250	-39.103336
3023.437500	-38.901863
3027.343750	-38.412567
3031.250000	-39.257576
3035.156250	-39.201038
3039.062500	-39.541348
3042.968750	-40.257736
3046.875000	-41.078564
3050.781250	-40.970482
3054.687500	-41.739361
3058.593750	-41.883282
3062.500000	-42.051582
3066.406250	-42.678425
3070.312500	-42.567806
3074.218750	-43.226315
3078.125000	-43.783539
3082.031250	-43.723133
3085.937500	-45.169670
3089.843750	-46.031445
3093.750000	-45.834782
3097.656250	-45.524269
3101.562500	-45.586311
3105.468750	-45.857883
3109.375000	-46.346451
3113.281250	-45.760197
3117.187500	-46.043686
3121.093750	-45.481834
3125.000000	-45.014015
3128.906250	-45.365658
3132.812500	-44.413898
3136.718750	-43.594463
3140.625000	-43.015732
3144.531250	-42.066402
3148.437500	-40.930046
3152.343750	-40.045746
3156.250000	-38.280491
3160.156250	-38.607868
3164.062500	-38.945538
3167.968750	-38.614079
3171.875000	-38.792244
3175.781250	-39.524220
3179.687500	-39.353924
3183.593750	-39.828045
3187.500000	-39.372868
3191.406250	-40.111153
3195.312500	-41.366501
3199.218750	-41.335869
3203.125000	-41.516689
3207.031250	-41.852692
3210.937500	-41.648682
3214.843750	-42.763599
3218.750000	-43.425053
3222.656250	-43.704254
3226.562500	-45.089802
3230.468750	-44.943756
3234.375000	-45.429539
3238.281250	-46.288612
3242.187500	-45.071404
3246.093750	-45.849491
3250.000000	-45.222816
3253.906250	-45.045650
3257.812500	-45.230328
3261.718750	-45.325817
3265.625000	-44.048145
3269.531250	-44.382259
3273.437500	-44.107494
3277.343750	-42.671024
3281.250000	-41.566502
3285.156250	-40.957794
3289.062500	-39.875034
3292.968750	-39.192764
3296.875000	-38.377087
3300.781250	-37.849007
3304.687500	-38.199520
3308.593750	-38.973072
3312.500000	-38.970871
3316.406250	-39.598957
3320.312500	-40.074432
3324.218750	-39.957504
3328.125000	-40.303265
3332.031250	-41.037445
3335.937500	-40.791561
3339.843750	-40.459892
3343.750000	-41.715950
3347.656250	-41.767269
3351.562500	-42.601833
3355.468750	-42.579613
3359.375000	-43.455170
3363.281250	-44.219070
3367.187500	-44.011646
3371.093750	-44.332882
3375.000000	-45.035213
3378.906250	-44.948139
3382.812500	-44.904968
3386.718750	-44.544617
3390.625000	-45.463493
3394.531250	-45.297382
3398.437500	-44.850662
3402.343750	-43.974495
3406.250000	-42.951950
3410.156250	-41.594494
3414.062500	-42.336479
3417.968750	-40.824539
3421.875000	-40.533646
3425.781250	-39.089245
3429.687500	-38.605030
3433.593750	-37.334408
3437.500000	-36.879040
3441.406250	-37.013035
3445.312500	-37.867569
3449.218750	-37.945538
3453.125000	-39.315189
3457.031250	-38.765141
3460.937500	-39.011921
3464.843750	-38.930309
3468.750000	-38.949482
3472.656250	-39.628662
3476.562500	-40.182354
3480.468750	-40.299538
3484.375000	-40.868782
3488.281250	-40.286930
3492.187500	-41.947346
3496.093750	-41.876995
3500.000000	-42.099010
3503.906250	-43.037086
3507.812500	-43.687904
3511.718750	-44.115101
3515.625000	-43.722633
3519.531250	-44.030006
3523.437500	-43.461281
3527.343750	-43.877567
3531.250000	-43.960716
3535.156250	-42.677429
3539.062500	-42.832314
3542.968750	-42.501968
3546.875000	-41.802238
3550.781250	-40.861275
3554.687500	-40.675766
3558.593750	-39.919617
3562.500000	-38.351288
3566.406250	-37.225315
3570.312500	-37.145782
3574.218750	-36.488216
3578.125000	-36.199173
3582.031250	-36.045601
3585.937500	-37.000214
3589.843750	-37.268414
3593.750000	-37.823223
3597.656250	-37.881966
3601.562500	-38.062126
3605.468750	-38.961658
3609.375000	-38.116688
3613.281250	-39.606766
3617.187500	-39.368744
3621.093750	-39.332180
3625.000000	-39.530006
3628.906250	-40.737762
3632.812500	-41.118736
3636.718750	-41.172691
3640.625000	-40.640907
3644.531250	-41.718304
3648.437500	-42.514256
3652.343750	-42.939697
3656.250000	-42.679626
3660.156250	-42.670567
3664.062500	-42.279472
3667.968750	-42.236935
3671.875000	-41.901104
3675.781250	-41.632347
3679.687500	-41.205677
3683.593750	-40.747803
3687.500000	-39.566811
3691.406250	-38.164890
3695.312500	-37.967297
3699.218750	-36.964943
3703.125000	-35.925972
3707.031250	-36.062618
3710.937500	-35.833160
3714.843750	-36.212498
3718.750000	-35.750938
3722.656250	-35.637608
3726.562500	-36.079239
3730.468750	-36.552990
3734.375000	-36.988335
3738.281250	-37.425892
3742.187500	-38.784355
3746.093750	-37.710800
3750.000000	-38.429047
3753.906250	-38.355667
3757.812500	-38.697437
3761.718750	-38.786446
3765.625000	-39.687824
3769.531250	-39.505478
3773.437500	-39.359886
3777.343750	-39.740757
3781.250000	-39.960922
3785.156250	-40.041958
3789.062500	-40.885002
3792.968750	-40.457684
3796.875000	-40.851120
3800.781250	-40.300175
3804.687500	-40.101341
3808.593750	-40.827785
3812.500000	-39.953400
3816.406250	-39.021179
3820.312500	-39.050797
3824.218750	-38.412472
3828.125000	-37.375317
3832.031250	-37.244213
3835.937500	-36.508801
3839.843750	-36.102501
3843.750000	-35.788185
3847.656250	-34.655548
3851.562500	-34.856213
3855.468750	-34.582169
3859.375000	-35.614429
3863.281250	-35.047256
3867.187500	-35.689552
3871.093750	-35.926193
3875.000000	-36.001118
3878.906250	-36.328548
3882.812500	-36.009716
3886.718750	-36.503914
3890.625000	-36.341805
3894.531250	-36.670155
3898.437500	-37.745430
3902.343750	-37.379532
3906.250000	-38.616577
3910.156250	-37.278625
3914.062500	-37.600067
3917.968750	-38.123383
3921.875000	-38.728764
3925.781250	-38.446815
3929.687500	-39.003132
3933.593750	-38.407917
3937.500000	-38.237995
3941.406250	-39.143692
3945.312500	-38.750172
3949.218750	-38.094559
3953.125000	-38.418663
3957.031250	-37.914333
3960.937500	-38.146675
3964.843750	-37.953861
3968.750000	-37.628712
3972.656250	-36.519756
3976.562500	-36.117661
3980.468750	-35.197643
3984.375000	-35.567848
3988.281250	-34.574306
3992.187500	-34.655186
3996.093750	-34.211700
4000.000000	-34.356678
4003.906250	-34.199242
4007.812500	-34.110836
4011.718750	-35.075058
4015.625000	-34.874504
4019.531250	-35.467197
4023.437500	-35.096020
4027.343750	-35.619244
4031.250000	-35.163891
4035.156250	-36.112194
4039.062500	-36.086235
4042.968750	-36.551876
4046.875000	-36.705086
4050.781250	-37.241043
4054.687500	-37.561516
4058.593750	-37.253143
4062.500000	-37.757065
4066.406250	-37.901066
4070.312500	-37.119720
4074.218750	-38.385399
4078.125000	-38.852619
4082.031250	-38.929852
4085.937500	-38.899628
4089.843750	-38.708649
4093.750000	-38.975311
4097.656250	-38.706554
4101.562500	-39.017952
4105.468750	-37.447342
4109.375000	-37.298820
4113.281250	-37.278580
4117.187500	-36.277290
4121.093750	-35.784084
4125.000000	-35.426586
4128.906250	-35.434513
4132.812500	-33.925526
4136.718750	-34.108757
4140.625000	-33.747334
4144.531250	-33.903759
4148.437500	-34.543262
4152.343750	-34.653385
4156.250000	-34.411900
4160.156250	-35.132256
4164.062500	-35.564102
4167.968750	-35.458927
4171.875000	-36.324295
4175.781250	-36.550850
4179.687500	-36.970718
4183.593750	-36.627571
4187.500000	-37.262833
4191.406250	-36.281242
4195.312500	-36.965004
4199.218750	-37.855396
4203.125000	-37.780952
4207.031250	-38.435753
4210.937500	-39.015591
4214.843750	-39.714436
4218.750000	-40.017075
4222.656250	-39.537315
4226.562500	-39.578770
4230.468750	-39.875496
4234.375000	-39.389690
4238.281250	-39.754662
4242.187500	-38.732105
4246.093750	-38.641029
4250.000000	-38.167686
4253.906250	-37.484993
4257.812500	-36.488407
4261.718750	-35.539886
4265.625000	-34.794395
4269.531250	-34.969395
4273.437500	-33.915432
4277.343750	-33.480526
4281.250000	-33.810745
4285.156250	-34.792477
4289.062500	-34.370575
4292.968750	-35.240517
4296.875000	-35.439602
4300.781250	-35.370121
4304.687500	-36.179424
4308.593750	-36.963394
4312.500000	-37.337093
4316.406250	-36.358833
4320.312500	-37.052441
4324.218750	-37.947647
4328.125000	-37.249638
4332.031250	-37.688728
4335.937500	-38.262478
4339.843750	-38.738979
4343.750000	-39.342148
4347.656250	-39.594505
4351.562500	-39.875427
4355.468750	-41.189632
4359.375000	-41.364246
4363.281250	-40.601238
4367.187500	-41.365364
4371.093750	-41.019440
4375.000000	-40.692509
4378.906250	-40.565281
4382.812500	-39.869530
4386.718750	-39.436581
4390.625000	-38.583546
4394.531250	-37.581631
4398.437500	-36.316139
4402.343750	-35.482334
4406.250000	-34.319424
4410.156250	-33.832184
4414.062500	-34.348331
4417.968750	-33.611950
4421.875000	-34.833290
4425.781250	-35.551941
4429.687500	-36.066338
4433.593750	-36.551662
4437.500000	-36.920803
4441.406250	-37.216457
4445.312500	-37.339691
4449.218750	-38.357380
4453.125000	-38.722271
4457.031250	-38.473537
4460.937500	-38.432858
4464.843750	-39.189598
4468.750000	-38.998138
4472.656250	-39.392143
4476.562500	-40.122967
4480.468750	-41.110374
4484.375000	-40.954620
4488.281250	-40.984901
4492.187500	-41.778702
4496.093750	-42.401470
4500.000000	-42.798256
4503.906250	-42.690796
4507.812500	-42.694752
4511.718750	-41.783924
4515.625000	-42.109089
4519.531250	-41.993767
4523.437500	-40.588211
4527.343750	-39.811535
4531.250000	-38.840012
4535.156250	-36.843727
4539.062500	-35.623940
4542.968750	-34.614601
4546.875000	-34.293514
4550.781250	-34.721191
4554.687500	-35.025700
4558.593750	-35.873333
4562.500000	-36.754326
4566.406250	-37.416069
4570.312500	-37.220989
4574.218750	-38.291004
4578.125000	-38.927334
4582.031250	-38.600517
4585.937500	-38.204193
4589.843750	-39.119469
4593.750000	-39.504360
4597.656250	-39.324814
4601.562500	-38.099350
4605.468750	-39.257175
4609.375000	-39.853737
4613.281250	-40.563179
4617.187500	-41.442570
4621.093750	-41.404182
4625.000000	-42.066666
4628.906250	-42.431416
4632.812500	-43.264996
4636.718750	-43.229965
4640.625000	-43.462635
4644.531250	-42.621395
4648.437500	-42.726452
4652.343750	-41.684990
4656.250000	-41.777954
4660.156250	-41.091961
4664.062500	-40.310966
4667.968750	-39.314285
4671.875000	-38.074825
4675.781250	-35.969872
4679.687500	-34.813457
4683.593750	-34.592373
4687.500000	-34.988670
4691.406250	-35.779835
4695.312500	-36.937233
4699.218750	-37.246220
4703.125000	-37.958897
4707.031250	-38.317551
4710.937500	-38.961777
4714.843750	-38.356754
4718.750000	-39.811417
4722.656250	-40.186100
4726.562500	-39.857533
4730.468750	-40.614975
4734.375000	-39.725002
4738.281250	-38.603851
4742.187500	-40.393074
4746.093750	-40.449291
4750.000000	-40.169388
4753.906250	-42.033150
4757.812500	-42.144932
4761.718750	-43.890106
4765.625000	-42.692303
4769.531250	-43.141319
4773.437500	-43.766312
4777.343750	-43.447594
4781.250000	-43.434834
4785.156250	-43.730610
4789.062500	-42.944599
4792.968750	-42.373627
4796.875000	-40.462456
4800.781250	-40.250046
4804.687500	-38.968674
4808.593750	-37.424572
4812.500000	-35.909519
4816.406250	-35.647907
4820.312500	-34.681286
4824.218750	-35.676998
4828.125000	-36.588680
4832.031250	-37.139751
4835.937500	-38.141788
4839.843750	-38.174046
4843.750000	-39.256451
4847.656250	-39.135567
4851.562500	-39.665848
4855.468750	-39.270279
4859.375000	-38.592472
4863.281250	-40.382763
4867.187500	-40.232155
4871.093750	-40.538788
4875.000000	-41.357578
4878.906250	-40.751488
4882.812500	-41.192173
4886.718750	-41.909454
4890.625000	-41.721775
4894.531250	-42.100746
4898.437500	-42.137234
4902.343750	-43.106117
4906.250000	-43.999653
4910.156250	-43.822479
4914.062500	-43.813549
4917.968750	-43.966007
4921.875000	-43.871742
4925.781250	-42.933010
4929.687500	-42.455193
4933.593750	-41.564854
4937.500000	-40.798946
4941.406250	-38.958168
4945.312500	-37.600689
4949.218750	-35.883137
4953.125000	-34.784180
4957.031250	-34.575623
4960.937500	-36.322083
4964.843750	-37.089844
4968.750000	-37.793152
4972.656250	-38.618675
4976.562500	-39.287296
4980.468750	-39.685966
4984.375000	-40.026619
4988.281250	-39.043354
4992.187500	-40.599445
4996.093750	-40.588081
5000.000000	-39.954342
5003.906250	-41.193199
5007.812500	-41.138081
5011.718750	-41.346344
5015.625000	-41.098869
5019.531250	-41.517006
5023.437500	-41.715229
5027.343750	-42.857784
5031.250000	-42.479462
5035.156250	-41.896450
5039.062500	-42.399971
5042.968750	-42.735508
5046.875000	-43.209396
5050.781250	-43.329441
5054.687500	-43.046089
5058.593750	-42.911900
5062.500000	-42.619034
5066.406250	-41.499168
5070.312500	-41.053123
5074.218750	-39.811550
5078.125000	-38.245564
5082.031250	-37.134346
5085.937500	-35.516155
5089.843750	-34.971611
5093.750000	-35.516460
5097.656250	-37.003620
5101.562500	-37.050457
5105.468750	-37.768406
5109.375000	-37.985641
5113.281250	-38.812069
5117.187500	-39.811802
5121.093750	-39.598301
5125.000000	-39.497585
5128.906250	-40.494179
5132.812500	-41.197357
5136.718750	-40.938259
5140.625000	-41.127678
5144.531250	-41.001259
5148.437500	-40.041023
5152.343750	-41.211964
5156.250000	-40.664108
5160.156250	-42.126461
5164.062500	-40.440765
5167.968750	-40.432541
5171.875000	-41.743866
5175.781250	-43.145226
5179.687500	-42.978729
5183.593750	-42.807587
5187.500000	-42.129353
5191.406250	-42.282722
5195.312500	-42.318295
5199.218750	-41.049629
5203.125000	-40.538853
5207.031250	-39.052090
5210.937500	-38.763016
5214.843750	-37.573471
5218.750000	-36.167431
5222.656250	-34.664474
5226.562500	-33.883171
5230.468750	-34.667995
5234.375000	-35.075455
5238.281250	-35.850574
5242.187500	-36.605576
5246.093750	-37.918812
5250.000000	-37.812592
5253.906250	-37.393661
5257.812500	-38.025787
5261.718750	-38.439980
5265.625000	-38.949162
5269.531250	-39.183659
5273.437500	-40.203514
5277.343750	-39.611412
5281.250000	-39.250435
5285.156250	-38.684948
5289.062500	-38.957512
5292.968750	-39.766853
5296.875000	-38.768497
5300.781250	-38.541336
5304.687500	-39.646542
5308.593750	-39.505524
5312.500000	-40.465130
5316.406250	-40.271698
5320.312500	-40.673607
5324.218750	-40.508686
5328.125000	-40.258472
5332.031250	-40.413033
5335.937500	-39.330765
5339.843750	-39.137814
5343.750000	-37.916710
5347.656250	-37.037506
5351.562500	-35.482346
5355.468750	-34.270775
5359.375000	-33.148113
5363.281250	-33.071114
5367.187500	-33.726120
5371.093750	-34.401241
5375.000000	-35.333584
5378.906250	-35.801460
5382.812500	-36.163601
5386.718750	-36.880299
5390.625000	-37.252277
5394.531250	-37.049763
5398.437500	-38.291119
5402.343750	-37.932678
5406.250000	-38.067234
5410.156250	-38.014259
5414.062500	-37.355972
5417.968750	-37.838531
5421.875000	-38.601692
5425.781250	-38.579632
5429.687500	-38.889141
5433.593750	-38.755215
5437.500000	-39.290821
5441.406250	-38.266556
5445.312500	-39.174736
5449.218750	-39.300732
5453.125000	-39.928116
5457.031250	-39.139580
5460.937500	-38.658989
5464.843750	-38.012119
5468.750000	-37.091789
5472.656250	-36.752052
5476.562500	-35.813885
5480.468750	-34.394077
5484.375000	-33.718449
5488.281250	-33.817810
5492.187500	-32.803616
5496.093750	-33.582447
5500.000000	-33.466702
5503.906250	-34.575657
5507.812500	-34.985580
5511.718750	-35.235798
5515.625000	-34.925854
5519.531250	-35.242298
5523.437500	-35.362778
5527.343750	-35.824600
5531.250000	-36.875034
5535.156250	-36.258228
5539.062500	-36.360302
5542.968750	-36.601582
5546.875000	-36.619453
5550.781250	-35.945271
5554.687500	-36.641617
5558.593750	-36.724155
5562.500000	-36.936527
5566.406250	-37.181675
5570.312500	-37.207073
5574.218750	-36.461948
5578.125000	-37.330620
5582.031250	-36.492268
5585.937500	-36.038406
5589.843750	-36.188686
5593.750000	-35.452393
5597.656250	-35.885841
5601.562500	-35.041714
5605.468750	-35.213722
5609.375000	-34.485310
5613.281250	-34.119576
5617.187500	-34.328766
5621.093750	-34.130039
5625.000000	-34.212757
5628.906250	-34.722927
5632.812500	-35.056778
5636.718750	-34.732838
5640.625000	-34.304398
5644.531250	-34.580917
5648.437500	-35.430073
5652.343750	-34.793495
5656.250000	-34.807533
5660.156250	-35.436134
5664.062500	-35.523678
5667.968750	-35.208645
5671.875000	-36.125694
5675.781250	-35.671947
5679.687500	-35.750954
5683.593750	-35.096718
5687.500000	-35.282555
5691.406250	-35.352985
5695.312500	-35.362530
5699.218750	-35.124527
5703.125000	-35.756966
5707.031250	-36.018349
5710.937500	-35.759624
5714.843750	-35.354351
5718.750000	-35.912045
5722.656250	-35.659859
5726.562500	-35.656738
5730.468750	-35.903301
5734.375000	-36.435074
5738.281250	-36.359921
5742.187500	-36.541885
5746.093750	-36.366505
5750.000000	-36.082054
5753.906250	-36.917652
5757.812500	-36.501423
5761.718750	-36.500298
5765.625000	-37.155079
5769.531250	-36.769638
5773.437500	-37.494465
5777.343750	-37.360641
5781.250000	-37.174278
5785.156250	-36.005821
5789.062500	-36.510910
5792.968750	-35.935802
5796.875000	-35.972004
5800.781250	-35.444256
5804.687500	-35.696529
5808.593750	-35.521420
5812.500000	-35.473515
5816.406250	-35.586315
5820.312500	-36.262695
5824.218750	-36.543774
5828.125000	-36.672596
5832.031250	-36.885105
5835.937500	-37.934013
5839.843750	-37.161915
5843.750000	-36.810516
5847.656250	-37.862923
5851.562500	-38.469017
5855.468750	-38.214115
5859.375000	-38.971359
5863.281250	-38.450985
5867.187500	-38.659313
5871.093750	-40.028725
5875.000000	-39.956936
5878.906250	-39.075012
5882.812500	-39.517803
5886.718750	-39.339016
5890.625000	-39.386330
5894.531250	-39.903488
5898.437500	-40.680431
5902.343750	-40.404938
5906.250000	-39.415955
5910.156250	-39.843857
5914.062500	-39.335712
5917.968750	-39.012848
5921.875000	-39.066685
5925.781250	-38.961704
5929.687500	-38.866161
5933.593750	-37.675510
5937.500000	-37.090633
5941.406250	-36.622158
5945.312500	-37.416382
5949.218750	-37.712063
5953.125000	-38.241070
5957.031250	-38.735008
5960.937500	-39.552723
5964.843750	-40.190765
5968.750000	-40.143429
5972.656250	-40.292183
5976.562500	-40.746712
5980.468750	-40.861645
5984.375000	-40.641083
5988.281250	-40.947941
5992.187500	-41.036221
5996.093750	-41.598347
6000.000000	-41.706116
6003.906250	-41.601452
6007.812500	-41.251884
6011.718750	-42.072323
6015.625000	-42.031349
6019.531250	-41.986771
6023.437500	-42.420410
6027.343750	-42.943886
6031.250000	-41.997818
6035.156250	-42.681820
6039.062500	-43.210178
6042.968750	-42.050278
6046.875000	-42.579071
6050.781250	-42.326958
6054.687500	-42.389458
6058.593750	-41.691261
6062.500000	-40.652905
6066.406250	-40.880329
6070.312500	-40.735779
6074.218750	-40.854397
6078.125000	-40.466534
6082.031250	-40.453308
6085.937500	-40.752907
6089.843750	-41.139065
6093.750000	-41.889668
6097.656250	-41.527592
6101.562500	-43.217472
6105.468750	-43.350876
6109.375000	-43.296650
6113.281250	-43.883175
6117.187500	-43.106991
6121.093750	-42.976105
6125.000000	-43.524860
6128.906250	-43.397461
6132.812500	-44.707691
6136.718750	-44.387280
6140.625000	-44.410542
6144.531250	-44.357067
6148.437500	-44.992001
6152.343750	-44.443382
6156.250000	-45.078449
6160.156250	-44.930721
6164.062500	-45.253075
6167.968750	-44.381424
6171.875000	-45.216175
6175.781250	-44.870438
6179.687500	-45.285583
6183.593750	-45.665119
6187.500000	-45.220673
6191.406250	-45.113556
6195.312500	-44.406067
6199.218750	-43.463406
6203.125000	-42.862034
6207.031250	-42.945683
6210.937500	-43.224335
6214.843750	-42.611591
6218.750000	-44.272438
6222.656250	-44.052315
6226.562500	-44.571896
6230.468750	-44.495216
6234.375000	-44.598614
6238.281250	-45.235336
6242.187500	-44.765884
6246.093750	-45.337589
6250.000000	-46.060364
6253.906250	-46.364582
6257.812500	-46.279800
6261.718750	-46.160595
6265.625000	-46.385277
6269.531250	-45.848419
6273.437500	-46.768711
6277.343750	-46.587746
6281.250000	-47.406223
6285.156250	-48.209538
6289.062500	-47.296139
6292.968750	-47.803761
6296.875000	-47.004925
6300.781250	-47.183182
6304.687500	-48.006531
6308.593750	-48.875309
6312.500000	-47.938026
6316.406250	-48.860977
6320.312500	-49.681828
6324.218750	-48.204475
6328.125000	-47.663853
6332.031250	-45.702877
6335.937500	-45.591053
6339.843750	-44.240028
6343.750000	-45.055214
6347.656250	-45.046921
6351.562500	-45.421421
6355.468750	-46.305515
6359.375000	-45.690929
6363.281250	-46.741131
6367.187500	-48.395210
6371.093750	-47.974751
6375.000000	-48.263412
6378.906250	-47.714520
6382.812500	-48.514160
6386.718750	-48.590141
6390.625000	-49.307728
6394.531250	-49.270271
6398.437500	-48.670761
6402.343750	-47.748962
6406.250000	-50.134937
6410.156250	-50.564625
6414.062500	-48.778553
6417.968750	-49.511189
6421.875000	-49.871201
6425.781250	-49.969131
6429.687500	-49.930252
6433.593750	-50.688656
6437.500000	-48.944401
6441.406250	-50.093403
6445.312500	-49.396507
6449.218750	-50.948734
6453.125000	-51.393776
6457.031250	-51.306755
6460.937500	-50.761433
6464.843750	-49.750092
6468.750000	-49.175488
6472.656250	-48.840202
6476.562500	-48.064640
6480.468750	-46.479908
6484.375000	-47.611385
6488.281250	-47.628193
6492.187500	-47.442860
6496.093750	-48.254475
6500.000000	-48.424797
6503.906250	-49.730568
6507.812500	-49.803791
6511.718750	-50.646206
6515.625000	-51.035774
6519.531250	-51.649120
6523.437500	-50.474819
6527.343750	-51.695545
6531.250000	-51.987614
6535.156250	-52.893162
6539.062500	-52.949997
6542.968750	-52.585480
6546.875000	-52.709206
6550.781250	-53.039898
6554.687500	-52.790016
6558.593750	-53.443943
6562.500000	-52.377289
6566.406250	-52.502064
6570.312500	-52.558891
6574.218750	-54.346985
6578.125000	-53.038212
6582.031250	-54.276970
6585.937500	-53.414509
6589.843750	-53.668743
6593.750000	-52.908978
6597.656250	-53.519463
6601.562500	-53.434250
6605.468750	-52.745319
6609.375000	-51.929714
6613.281250	-50.907551
6617.187500	-50.496925
6621.093750	-49.824730
6625.000000	-50.344471
6628.906250	-50.864532
6632.812500	-51.396099
6636.718750	-51.754002
6640.625000	-53.000641
6644.531250	-52.860325
6648.437500	-53.405235
6652.343750	-53.302151
6656.250000	-54.241108
6660.156250	-54.928741
6664.062500	-55.452541
6667.968750	-55.044098
6671.875000	-54.939518
6675.781250	-55.286236
6679.687500	-55.087582
6683.593750	-55.648586
6687.500000	-55.011669
6691.406250	-56.335903
6695.312500	-56.199677
6699.218750	-56.287228
6703.125000	-56.933754
6707.031250	-57.065975
6710.937500	-56.219673
6714.843750	-56.162453
6718.750000	-56.086899
6722.656250	-56.487797
6726.562500	-56.933365
6730.468750	-57.594849
6734.375000	-56.707214
6738.281250	-56.175377
6742.187500	-55.927586
6746.093750	-55.085609
6750.000000	-53.782711
6753.906250	-53.343758
6757.812500	-52.788834
6761.718750	-52.145271
6765.625000	-52.892223
6769.531250	-54.529160
6773.437500	-55.659721
6777.343750	-56.134773
6781.250000	-57.049370
6785.156250	-56.958080
6789.062500	-57.521698
6792.968750	-57.694221
6796.875000	-57.427773
6800.781250	-58.398533
6804.687500	-58.283112
6808.593750	-58.303261
6812.500000	-58.360748
6816.406250	-57.879162
6820.312500	-58.613403
6824.218750	-59.396179
6828.125000	-60.033096
6832.031250	-59.329697
6835.937500	-59.366253
6839.843750	-59.527245
6843.750000	-60.419628
6847.656250	-60.668934
6851.562500	-59.732952
6855.468750	-60.229519
6859.375000	-59.759731
6863.281250	-60.248692
6867.187500	-60.043877
6871.093750	-60.363976
6875.000000	-60.260689
6878.906250	-59.189972
6882.812500	-59.389305
6886.718750	-58.401260
6890.625000	-57.461788
6894.531250	-57.657490
6898.437500	-57.022823
6902.343750	-57.243767
6906.250000	-57.825840
6910.156250	-58.752537
6914.062500	-59.490009
6917.968750	-59.983795
6921.875000	-60.174431
6925.781250	-60.630405
6929.687500	-61.503666
6933.593750	-62.121811
6937.500000	-62.172245
6941.406250	-61.884167
6945.312500	-62.755268
6949.218750	-63.185486
6953.125000	-62.988640
6957.031250	-63.154533
6960.937500	-62.527164
6964.843750	-63.440750
6968.750000	-63.545609
6972.656250	-64.357262
6976.562500	-63.713123
6980.468750	-64.336006
6984.375000	-64.147812
6988.281250	-63.365925
6992.187500	-64.389137
6996.093750	-64.310204
7000.000000	-65.158638
7003.906250	-64.516060
7007.812500	-65.063095
7011.718750	-64.668793
7015.625000	-63.732300
7019.531250	-63.238201
7023.437500	-61.937073
7027.343750	-61.224148
7031.250000	-61.096741
7035.156250	-60.786598
7039.062500	-61.122524
7042.968750	-62.499016
7046.875000	-63.073921
7050.781250	-64.380569
7054.687500	-64.435310
7058.593750	-65.402061
7062.500000	-65.491295
7066.406250	-65.783417
7070.312500	-65.816978
7074.218750	-65.777672
7078.125000	-67.417229
7082.031250	-67.463516
7085.937500	-67.749619
7089.843750	-67.459068
7093.750000	-67.174072
7097.656250	-67.644646
7101.562500	-67.287476
7105.468750	-68.033585
7109.375000	-68.973900
7113.281250	-68.910522
7117.187500	-68.913849
7121.093750	-69.091377
7125.000000	-68.824829
7128.906250	-68.417747
7132.812500	-69.090469
7136.718750	-69.370827
7140.625000	-69.036255
7144.531250	-68.533707
7148.437500	-68.974121
7152.343750	-68.218170
7156.250000	-67.888458
7160.156250	-67.586197
7164.062500	-66.752457
7167.968750	-66.320412
7171.875000	-66.942108
7175.781250	-66.697968
7179.687500	-67.950058
7183.593750	-68.404602
7187.500000	-68.638008
7191.406250	-69.089149
7195.312500	-69.281105
7199.218750	-69.284309
7203.125000	-69.669746
7207.031250	-70.354774
7210.937500	-70.860329
7214.843750	-70.617310
7218.750000	-70.277382
7222.656250	-70.266556
7226.562500	-70.528557
7230.468750	-70.276833
7234.375000	-70.542213
7238.281250	-69.865479
7242.187500	-70.107239
7246.093750	-70.955284
7250.000000	-70.014503
7253.906250	-70.994171
7257.812500	-70.815041
7261.718750	-71.387527
7265.625000	-71.419998
7269.531250	-71.834892
7273.437500	-71.607941
7277.343750	-71.711632
7281.250000	-71.961693
7285.156250	-72.288681
7289.062500	-72.047234
7292.968750	-72.137840
7296.875000	-71.822418
7300.781250	-71.107552
7304.687500	-71.059540
7308.593750	-70.024231
7312.500000	-70.297218
7316.406250	-71.327003
7320.312500	-71.799942
7324.218750	-72.293518
7328.125000	-72.531883
7332.031250	-72.993019
7335.937500	-72.861710
7339.843750	-72.892723
7343.750000	-73.027588
7347.656250	-73.328857
7351.562500	-73.546295
7355.468750	-73.426102
7359.375000	-73.518600
7363.281250	-73.510201
7367.187500	-73.638275
7371.093750	-73.352081
7375.000000	-73.271118
7378.906250	-73.216087
7382.812500	-73.622978
7386.718750	-73.893143
7390.625000	-73.635246
7394.531250	-73.539734
7398.437500	-73.056946
7402.343750	-73.952446
7406.250000	-73.030098
7410.156250	-73.135078
7414.062500	-73.549942
7417.968750	-73.340500
7421.875000	-73.727432
7425.781250	-72.823067
7429.687500	-73.015114
7433.593750	-73.261353
7437.500000	-73.654976
7441.406250	-72.698036
7445.312500	-72.866692
7449.218750	-72.458534
7453.125000	-73.135620
7457.031250	-73.329842
7460.937500	-73.040077
7464.843750	-73.102203
7468.750000	-73.235428
7472.656250	-73.250450
7476.562500	-73.642570
7480.468750	-73.830704
7484.375000	-73.614075
7488.281250	-73.842812
7492.187500	-74.169250
7496.093750	-73.911095
7500.000000	-74.179375
7503.906250	-74.174774
7507.812500	-74.143890
7511.718750	-74.303497
7515.625000	-74.148560
7519.531250	-74.644119
7523.437500	-74.448563
7527.343750	-74.459900
7531.250000	-74.596428
7535.156250	-74.492462
7539.062500	-74.754280
7542.968750	-74.413811
7546.875000	-74.877296
7550.781250	-74.627060
7554.687500	-74.641594
7558.593750	-74.610870
7562.500000	-74.709999
7566.406250	-74.503632
7570.312500	-74.670502
7574.218750	-74.608643
7578.125000	-74.453529
7582.031250	-74.520409
7585.937500	-74.545288
7589.843750	-74.466187
7593.750000	-74.393494
7597.656250	-74.333771
7601.562500	-74.297035
7605.468750	-74.249588
7609.375000	-74.273888
7613.281250	-74.578178
7617.187500	-74.460976
7621.093750	-74.513947
7625.000000	-74.470009
7628.906250	-74.403732
7632.812500	-74.641914
7636.718750	-74.606522
7640.625000	-74.586761
7644.531250	-74.729355
7648.437500	-74.769310
7652.343750	-74.496101
7656.250000	-74.867096
7660.156250	-74.871758
7664.062500	-74.834732
7667.968750	-74.724655
7671.875000	-74.771637
7675.781250	-74.873680
7679.687500	-74.798645
7683.593750	-74.848198
7687.500000	-74.895615
7691.406250	-75.066574
7695.312500	-74.941223
7699.218750	-75.012077
7703.125000	-75.024551
7707.031250	-75.088081
7710.937500	-75.065399
7714.843750	-75.102470
7718.750000	-75.134666
7722.656250	-75.192726
7726.562500	-75.164185
7730.468750	-75.197548
7734.375000	-75.200478
7738.281250	-75.228882
7742.187500	-75.198105
7746.093750	-75.201225
7750.000000	-75.231056
7753.906250	-75.212753
7757.812500	-75.195259
7761.718750	-75.256760
7765.625000	-75.234810
7769.531250	-75.256752
7773.437500	-75.252785
7777.343750	-75.272194
7781.250000	-75.265274
7785.156250	-75.253464
7789.062500	-75.276764
7792.968750	-75.266197
7796.875000	-75.281815
7800.781250	-75.280472
7804.687500	-75.280350
7808.593750	-75.280342
7812.500000	-75.286987
7816.406250	-75.289909
7820.312500	-75.291702
7824.218750	-75.296120
7828.125000	-75.296814
7832.031250	-75.298660
7835.937500	-75.301056
7839.843750	-75.302780
7843.750000	-75.304710
7847.656250	-75.308090
7851.562500	-75.309227
7855.468750	-75.311165
7859.375000	-75.313560
7863.281250	-75.314537
7867.187500	-75.316948
7871.093750	-75.318909
7875.000000	-75.320435
7878.906250	-75.322273
7882.812500	-75.323700
7886.718750	-75.325287
7890.625000	-75.326790
7894.531250	-75.328217
7898.437500	-75.329613
7902.343750	-75.330963
7906.250000	-75.332184
7910.156250	-75.333450
7914.062500	-75.334610
7917.968750	-75.335762
7921.875000	-75.336845
7925.781250	-75.337860
7929.687500	-75.338837
7933.593750	-75.339745
7937.500000	-75.340622
7941.406250	-75.341446
7945.312500	-75.342194
7949.218750	-75.342911
7953.125000	-75.343567
7957.031250	-75.344170
7960.937500	-75.344727
7964.843750	-75.345230
7968.750000	-75.345673
7972.656250	-75.346069
7976.562500	-75.346413
7980.468750	-75.346695
7984.375000	-75.346939
7988.281250	-75.347122
7992.187500	-75.347260
7996.093750	-75.347328
