Frequency (Hz)	Level (dB)
1.953125	-102.961220
3.906250	-96.586075
5.859375	-92.087044
7.812500	-90.086884
9.765625	-85.853882
11.718750	-82.362152
13.671875	-82.241005
15.625000	-81.875168
17.578125	-80.958893
19.531250	-79.678123
21.484375	-78.235374
23.437500	-77.930603
25.390625	-78.493027
27.343750	-77.577736
29.296875	-77.186440
31.250000	-78.181366
33.203125	-78.650856
35.156250	-77.055550
37.109375	-77.336945
39.062500	-78.775993
41.015625	-77.971298
42.968750	-77.583000
44.921875	-77.202705
46.875000	-77.365891
48.828125	-76.628540
50.781250	-75.750084
52.734375	-76.039536
54.687500	-74.378853
56.640625	-73.225731
58.593750	-73.142731
60.546875	-73.274117
62.500000	-72.008400
64.453125	-74.238487
66.406250	-78.142593
68.359375	-77.655708
70.312500	-76.500557
72.265625	-76.089706
74.218750	-76.205742
76.171875	-76.725266
78.125000	-77.278603
80.078125	-78.840462
82.031250	-79.436455
83.984375	-77.651024
85.937500	-77.049408
87.890625	-77.909897
89.843750	-77.659729
91.796875	-77.808510
93.750000	-78.774460
95.703125	-78.924454
97.656250	-79.409561
99.609375	-79.288750
101.562500	-79.100845
103.515625	-78.472389
105.468750	-79.225838
107.421875	-79.566711
109.375000	-78.555710
111.328125	-78.501480
113.281250	-76.688820
115.234375	-76.776482
117.187500	-76.827866
119.140625	-74.061996
121.093750	-73.588318
123.046875	-77.476128
125.000000	-79.158348
126.953125	-79.547859
128.906250	-79.151474
130.859375	-79.091263
132.812500	-78.615540
134.765625	-78.680405
136.718750	-79.461105
138.671875	-78.924438
140.625000	-78.181755
142.578125	-78.298645
144.531250	-77.630127
146.484375	-76.803802
148.437500	-76.556786
150.390625	-76.562180
152.343750	-77.293495
154.296875	-77.259834
156.250000	-77.468697
158.203125	-77.166389
160.156250	-77.077621
162.109375	-76.687088
164.062500	-77.433800
166.015625	-77.398933
167.968750	-77.963264
169.921875	-78.253479
171.875000	-78.083504
173.828125	-78.134583
175.781250	-77.767990
177.734375	-77.240578
179.687500	-77.153679
181.640625	-77.424416
183.593750	-77.408569
185.546875	-77.546707
187.500000	-77.803955
189.453125	-76.982231
191.406250	-76.418953
193.359375	-76.104942
195.312500	-75.928879
197.265625	-76.636536
199.218750	-76.103653
201.171875	-75.518242
203.125000	-74.984756
205.078125	-75.507622
207.031250	-75.340424
208.984375	-75.448654
210.937500	-74.766258
212.890625	-73.940742
214.843750	-74.250214
216.796875	-73.569832
218.750000	-74.166893
220.703125	-73.896034
222.656250	-73.762566
224.609375	-73.456589
226.562500	-73.914330
228.515625	-74.072083
230.468750	-72.977936
232.421875	-72.130432
234.375000	-72.034531
236.328125	-72.624054
238.281250	-72.227676
240.234375	-67.440231
242.187500	-65.634605
244.140625	-69.685387
246.093750	-70.655144
248.046875	-70.119896
250.000000	-69.234398
251.953125	-68.933441
253.906250	-68.225624
255.859375	-67.413986
257.812500	-67.909691
259.765625	-67.854683
261.718750	-67.117912
263.671875	-66.548119
265.625000	-65.521515
267.578125	-64.761581
269.531250	-64.652664
271.484375	-63.814541
273.437500	-63.613277
275.390625	-62.741302
277.343750	-62.196133
279.296875	-62.702045
281.250000	-61.899197
283.203125	-61.411079
285.156250	-60.654972
287.109375	-60.454472
289.062500	-60.538338
291.015625	-60.507984
292.968750	-60.844112
294.921875	-61.479603
296.875000	-62.475033
298.828125	-63.272121
300.781250	-63.768471
302.734375	-63.838741
304.687500	-64.627098
306.640625	-64.780670
308.593750	-65.123497
310.546875	-65.515167
312.500000	-66.293602
314.453125	-66.081352
316.406250	-66.691673
318.359375	-67.772301
320.312500	-68.450623
322.265625	-68.976921
324.218750	-68.894714
326.171875	-69.671341
328.125000	-69.518585
330.078125	-69.056931
332.031250	-69.740845
333.984375	-70.099068
335.937500	-70.296661
337.890625	-70.624046
339.843750	-71.286736
341.796875	-71.356483
343.750000	-70.930229
345.703125	-71.836006
347.656250	-72.013763
349.609375	-72.417648
351.562500	-71.650337
353.515625	-71.283394
355.468750	-72.017090
357.421875	-73.286308
359.375000	-73.155861
361.328125	-73.236443
363.281250	-73.014603
365.234375	-74.044327
367.187500	-74.170547
369.140625	-73.806526
371.093750	-73.690376
373.046875	-73.516655
375.000000	-73.681190
376.953125	-74.328568
378.906250	-74.361534
380.859375	-74.260834
382.812500	-74.192314
384.765625	-74.599426
386.718750	-75.166298
388.671875	-74.822807
390.625000	-74.757721
392.578125	-75.555573
394.531250	-74.972168
396.484375	-74.679787
398.437500	-75.147949
400.390625	-75.056282
402.343750	-74.739822
404.296875	-74.806328
406.250000	-75.770111
408.203125	-75.527855
410.156250	-75.622948
412.109375	-75.556282
414.062500	-75.836067
416.015625	-75.306015
417.968750	-75.461395
419.921875	-75.649178
421.875000	-75.266449
423.828125	-74.807503
425.781250	-74.896584
427.734375	-75.554840
429.687500	-75.370102
431.640625	-74.615181
433.593750	-75.256027
435.546875	-75.082848
437.500000	-74.482079
439.453125	-75.393234
441.406250	-75.450050
443.359375	-75.304787
445.312500	-74.824173
447.265625	-74.732056
449.218750	-74.591629
451.171875	-75.223099
453.125000	-75.662148
455.078125	-74.697662
457.031250	-74.878296
458.984375	-74.427094
460.937500	-74.030182
462.890625	-74.375359
464.843750	-74.598244
466.796875	-74.046036
468.750000	-73.581589
470.703125	-73.658737
472.656250	-74.356133
474.609375	-74.698074
476.562500	-74.362465
478.515625	-74.055748
480.468750	-73.946800
482.421875	-73.669716
484.375000	-73.342209
486.328125	-73.525688
488.281250	-73.259010
490.234375	-72.780266
492.187500	-73.054001
494.140625	-72.577003
496.093750	-72.645271
498.046875	-72.967064
500.000000	-72.806709
501.953125	-72.029259
503.906250	-72.583298
505.859375	-71.639420
507.812500	-71.050507
509.765625	-71.294724
511.718750	-71.004929
513.671875	-71.235260
515.625000	-70.242516
517.578125	-70.498474
519.531250	-70.423431
521.484375	-70.220039
523.437500	-70.216469
525.390625	-70.003212
527.343750	-69.658897
529.296875	-69.015854
531.250000	-68.320374
533.203125	-67.772621
535.156250	-67.693733
537.109375	-67.484093
539.062500	-67.305061
541.015625	-66.370056
542.968750	-65.900215
544.921875	-65.950684
546.875000	-65.279938
548.828125	-64.924255
550.781250	-64.746384
552.734375	-63.353054
554.687500	-62.548470
556.640625	-62.018642
558.593750	-61.738377
560.546875	-62.018414
562.500000	-61.352459
564.453125	-60.202515
566.406250	-60.490845
568.359375	-59.874218
570.312500	-59.455872
572.265625	-59.396679
574.218750	-59.782875
576.171875	-59.706600
578.125000	-59.593941
580.078125	-60.033070
582.031250	-60.149643
583.984375	-61.072102
585.937500	-61.670967
587.890625	-61.605339
589.843750	-61.958187
591.796875	-62.811939
593.750000	-63.383324
595.703125	-64.213264
597.656250	-64.231056
599.609375	-64.473175
601.562500	-65.252174
603.515625	-66.015755
605.468750	-66.391647
607.421875	-66.712158
609.375000	-67.310883
611.328125	-67.383385
613.281250	-67.761665
615.234375	-67.827950
617.187500	-68.168785
619.140625	-68.390450
621.093750	-68.354156
623.046875	-69.231415
625.000000	-69.014572
626.953125	-68.953842
628.906250	-69.746063
630.859375	-70.293327
632.812500	-69.816154
634.765625	-70.273445
636.718750	-70.434189
638.671875	-70.338799
640.625000	-70.849548
642.578125	-70.733696
644.531250	-70.275681
646.484375	-70.720856
648.437500	-71.098038
650.390625	-71.129471
652.343750	-71.137825
654.296875	-71.427292
656.250000	-71.866684
658.203125	-72.126495
660.156250	-72.449898
662.109375	-72.321144
664.062500	-71.835960
666.015625	-72.414429
667.968750	-72.903946
669.921875	-73.146393
671.875000	-72.963310
673.828125	-73.075821
675.781250	-73.779564
677.734375	-73.837883
679.687500	-73.479401
681.640625	-72.397125
683.593750	-72.599228
685.546875	-72.526978
687.500000	-73.249161
689.453125	-73.595299
691.406250	-74.111801
693.359375	-73.806664
695.312500	-74.180565
697.265625	-73.746468
699.218750	-73.930969
701.171875	-73.470932
703.125000	-73.186722
705.078125	-73.212891
707.031250	-73.636627
708.984375	-74.065254
710.937500	-73.561668
712.890625	-73.334412
714.843750	-73.175804
716.796875	-73.294991
718.750000	-73.804802
720.703125	-73.739075
722.656250	-73.981438
724.609375	-73.418983
726.562500	-73.160492
728.515625	-73.474388
730.468750	-73.405418
732.421875	-73.733788
734.375000	-73.406754
736.328125	-73.341614
738.281250	-72.988457
740.234375	-72.946541
742.187500	-72.894188
744.140625	-72.798187
746.093750	-72.922523
748.046875	-73.141403
750.000000	-73.244003
751.953125	-72.948532
753.906250	-72.954666
755.859375	-72.934151
757.812500	-72.848145
759.765625	-72.282356
761.718750	-72.321289
763.671875	-72.218277
765.625000	-72.347626
767.578125	-72.033928
769.531250	-71.589661
771.484375	-72.050575
773.437500	-72.109802
775.390625	-71.394363
777.343750	-71.468208
779.296875	-71.619980
781.250000	-72.116127
783.203125	-71.331108
785.156250	-70.533630
787.109375	-70.164268
789.062500	-70.485886
791.015625	-70.498436
792.968750	-69.485451
794.921875	-69.674835
796.875000	-69.334435
798.828125	-68.631981
800.781250	-69.083054
802.734375	-68.802155
804.687500	-68.848969
806.640625	-68.765663
808.593750	-67.991737
810.546875	-67.776230
812.500000	-67.529694
814.453125	-67.001030
816.406250	-66.903748
818.359375	-66.840576
820.312500	-66.377029
822.265625	-66.176132
824.218750	-65.704544
826.171875	-65.186104
828.125000	-64.887077
830.078125	-64.635818
832.031250	-64.490395
833.984375	-64.371643
835.937500	-63.704216
837.890625	-63.249973
839.843750	-63.096355
841.796875	-62.353291
843.750000	-61.343380
845.703125	-61.048306
847.656250	-60.146084
849.609375	-59.416386
851.562500	-59.340065
853.515625	-58.733616
855.468750	-57.888760
857.421875	-57.500359
859.375000	-57.550808
861.328125	-57.422173
863.281250	-57.399250
865.234375	-57.633324
867.187500	-57.619488
869.140625	-57.339039
871.093750	-57.559132
873.046875	-58.017559
875.000000	-58.749664
876.953125	-59.632172
878.906250	-60.767395
880.859375	-60.336857
882.812500	-60.631706
884.765625	-61.737312
886.718750	-61.907856
888.671875	-61.961105
890.625000	-63.016582
892.578125	-64.481888
894.531250	-64.564667
896.484375	-64.935883
898.437500	-64.958015
900.390625	-64.642845
902.343750	-65.143806
904.296875	-65.975014
906.250000	-65.472214
908.203125	-66.383400
910.156250	-67.059380
912.109375	-66.522278
914.062500	-66.998360
916.015625	-67.227905
917.968750	-67.138885
919.921875	-67.959389
921.875000	-67.844315
923.828125	-68.118576
925.781250	-68.139168
927.734375	-68.784943
929.687500	-68.589508
931.640625	-68.462425
933.593750	-68.874672
935.546875	-69.016174
937.500000	-69.441032
939.453125	-69.398178
941.406250	-69.265533
943.359375	-70.302521
945.312500	-70.412033
947.265625	-70.104202
949.218750	-69.964890
951.171875	-70.461296
953.125000	-70.314095
955.078125	-70.388618
957.031250	-70.586594
958.984375	-70.871109
960.937500	-71.376190
962.890625	-70.842064
964.843750	-70.834106
966.796875	-71.753365
968.750000	-72.232651
970.703125	-71.329407
972.656250	-70.976868
974.609375	-71.012115
976.562500	-71.282661
978.515625	-70.901115
980.468750	-71.050163
982.421875	-71.723061
984.375000	-71.986374
986.328125	-71.334312
988.281250	-71.779709
990.234375	-72.228653
992.187500	-71.792191
994.140625	-71.864090
996.093750	-72.272079
998.046875	-72.102150
1000.000000	-71.519897
1001.953125	-70.652893
1003.906250	-71.129929
1005.859375	-71.094978
1007.812500	-71.437691
1009.765625	-71.905968
1011.718750	-72.356216
1013.671875	-72.154861
1015.625000	-71.082420
1017.578125	-71.103523
1019.531250	-71.055214
1021.484375	-71.353737
1023.437500	-71.720497
1025.390625	-71.130196
1027.343750	-71.158600
1029.296875	-71.720581
1031.250000	-71.804146
1033.203125	-71.724823
1035.156250	-71.195816
1037.109375	-71.230820
1039.062500	-71.386040
1041.015625	-71.083023
1042.968750	-70.764153
1044.921875	-69.672470
1046.875000	-69.640930
1048.828125	-70.115974
1050.781250	-70.142517
1052.734375	-70.542007
1054.687500	-69.873573
1056.640625	-69.878136
1058.593750	-69.942871
1060.546875	-69.273949
1062.500000	-69.595383
1064.453125	-69.983223
1066.406250	-69.536301
1068.359375	-68.639946
1070.312500	-68.011490
1072.265625	-68.100250
1074.218750	-67.830536
1076.171875	-68.367485
1078.125000	-68.386711
1080.078125	-68.043236
1082.031250	-67.917099
1083.984375	-67.352219
1085.937500	-67.246101
1087.890625	-66.965416
1089.843750	-67.842316
1091.796875	-66.907722
1093.750000	-66.243004
1095.703125	-65.645149
1097.656250	-65.827850
1099.609375	-65.004471
1101.562500	-64.555183
1103.515625	-64.465569
1105.468750	-64.699165
1107.421875	-64.033630
1109.375000	-63.796459
1111.328125	-63.814674
1113.281250	-63.424377
1115.234375	-62.338947
1117.187500	-62.100140
1119.140625	-61.044521
1121.093750	-60.403431
1123.046875	-59.863331
1125.000000	-59.229778
1126.953125	-59.555927
1128.906250	-59.001404
1130.859375	-57.900734
1132.812500	-57.409584
1134.765625	-57.633133
1136.718750	-56.742741
1138.671875	-56.245327
1140.625000	-56.181000
1142.578125	-55.876617
1144.531250	-55.692211
1146.484375	-55.891411
1148.437500	-55.401421
1150.390625	-55.665012
1152.343750	-55.422344
1154.296875	-56.041714
1156.250000	-57.259136
1158.203125	-57.803913
1160.156250	-58.148701
1162.109375	-59.433781
1164.062500	-59.669666
1166.015625	-60.055042
1167.968750	-60.079670
1169.921875	-60.631969
1171.875000	-61.381241
1173.828125	-62.136429
1175.781250	-62.487907
1177.734375	-62.931053
1179.687500	-63.462070
1181.640625	-63.521786
1183.593750	-63.795681
1185.546875	-64.371086
1187.500000	-64.623993
1189.453125	-64.670128
1191.406250	-64.688065
1193.359375	-64.874397
1195.312500	-65.772430
1197.265625	-66.932617
1199.218750	-66.740723
1201.171875	-66.544662
1203.125000	-66.225243
1205.078125	-66.595238
1207.031250	-67.354332
1208.984375	-67.171463
1210.937500	-67.656738
1212.890625	-67.893471
1214.843750	-68.269165
1216.796875	-67.939758
1218.750000	-67.978340
1220.703125	-68.683159
1222.656250	-68.888100
1224.609375	-69.022125
1226.562500	-69.112602
1228.515625	-68.965675
1230.468750	-68.777390
1232.421875	-69.422981
1234.375000	-70.071182
1236.328125	-69.722061
1238.281250	-69.044640
1240.234375	-68.953857
1242.187500	-69.210312
1244.140625	-69.575005
1246.093750	-69.101326
1248.046875	-69.137123
1250.000000	-69.457230
1251.953125	-69.428078
1253.906250	-69.418465
1255.859375	-69.950439
1257.812500	-69.974701
1259.765625	-70.597176
1261.718750	-70.439156
1263.671875	-69.937508
1265.625000	-70.313156
1267.578125	-70.540779
1269.531250	-69.972672
1271.484375	-70.313942
1273.437500	-70.379105
1275.390625	-70.540047
1277.343750	-70.559547
1279.296875	-70.692841
1281.250000	-70.843132
1283.203125	-70.743980
1285.156250	-70.300591
1287.109375	-70.924110
1289.062500	-70.291901
1291.015625	-70.282227
1292.968750	-70.526352
1294.921875	-70.480675
1296.875000	-70.325768
1298.828125	-70.256668
1300.781250	-70.440849
1302.734375	-70.946571
1304.687500	-70.947365
1306.640625	-70.341667
1308.593750	-70.385857
1310.546875	-70.035927
1312.500000	-69.985626
1314.453125	-69.592041
1316.406250	-69.671867
1318.359375	-69.655991
1320.312500	-69.999031
1322.265625	-70.126396
1324.218750	-70.498131
1326.171875	-70.549652
1328.125000	-69.762512
1330.078125	-69.046043
1332.031250	-69.192123
1333.984375	-70.048157
1335.937500	-69.192085
1337.890625	-69.039818
1339.843750	-69.343307
1341.796875	-69.132668
1343.750000	-69.149269
1345.703125	-68.961617
1347.656250	-67.771484
1349.609375	-68.139702
1351.562500	-68.730064
1353.515625	-67.760094
1355.468750	-67.643768
1357.421875	-67.434036
1359.375000	-66.606377
1361.328125	-67.087708
1363.281250	-67.046822
1365.234375	-66.636574
1367.187500	-66.848259
1369.140625	-66.882797
1371.093750	-66.487190
1373.046875	-66.217140
1375.000000	-65.781715
1376.953125	-65.404793
1378.906250	-65.756660
1380.859375	-65.172112
1382.812500	-64.902184
1384.765625	-64.599197
1386.718750	-63.987911
1388.671875	-63.515244
1390.625000	-63.147488
1392.578125	-62.889767
1394.531250	-62.834431
1396.484375	-62.256378
1398.437500	-62.079353
1400.390625	-62.094650
1402.343750	-61.167133
1404.296875	-60.733730
1406.250000	-60.608215
1408.203125	-59.545685
1410.156250	-59.600117
1412.109375	-58.799171
1414.062500	-57.999222
1416.015625	-57.582878
1417.968750	-56.986507
1419.921875	-56.467121
1421.875000	-56.794239
1423.828125	-55.809765
1425.781250	-54.183033
1427.734375	-53.884239
1429.687500	-53.838226
1431.640625	-53.432686
1433.593750	-53.548367
1435.546875	-54.208633
1437.500000	-53.882320
1439.453125	-53.506954
1441.406250	-54.046120
1443.359375	-54.744537
1445.312500	-55.588898
1447.265625	-56.004566
1449.218750	-56.209087
1451.171875	-57.062946
1453.125000	-57.862915
1455.078125	-57.917835
1457.031250	-58.501549
1458.984375	-59.542503
1460.937500	-59.923084
1462.890625	-60.163502
1464.843750	-60.399826
1466.796875	-59.773464
1468.750000	-60.274487
1470.703125	-61.151451
1472.656250	-62.150871
1474.609375	-62.210472
1476.562500	-61.930458
1478.515625	-62.527149
1480.468750	-63.518890
1482.421875	-63.866199
1484.375000	-63.768841
1486.328125	-63.687069
1488.281250	-64.414330
1490.234375	-65.060211
1492.187500	-64.347313
1494.140625	-64.568794
1496.093750	-65.291290
1498.046875	-65.591568
1500.000000	-65.763115
1501.953125	-65.464165
1503.906250	-65.793007
1505.859375	-66.190674
1507.812500	-66.464516
1509.765625	-66.711113
1511.718750	-66.548714
1513.671875	-65.925583
1515.625000	-67.049217
1517.578125	-66.698845
1519.531250	-66.874725
1521.484375	-66.878265
1523.437500	-67.183022
1525.390625	-67.809364
1527.343750	-67.653290
1529.296875	-66.895332
1531.250000	-67.779510
1533.203125	-67.958733
1535.156250	-67.805634
1537.109375	-67.716141
1539.062500	-68.466888
1541.015625	-68.731895
1542.968750	-68.036057
1544.921875	-68.066544
1546.875000	-67.713814
1548.828125	-68.409065
1550.781250	-68.895302
1552.734375	-68.047585
1554.687500	-68.280006
1556.640625	-68.115524
1558.593750	-67.953979
1560.546875	-68.406456
1562.500000	-68.371071
1564.453125	-68.292068
1566.406250	-68.240555
1568.359375	-69.008522
1570.312500	-69.071571
1572.265625	-68.657455
1574.218750	-68.745247
1576.171875	-68.478798
1578.125000	-68.368843
1580.078125	-68.458427
1582.031250	-68.469818
1583.984375	-68.315445
1585.937500	-67.901299
1587.890625	-67.116150
1589.843750	-67.755394
1591.796875	-68.251938
1593.750000	-67.817726
1595.703125	-68.142670
1597.656250	-67.886520
1599.609375	-68.090729
1601.562500	-67.942047
1603.515625	-67.569733
1605.468750	-66.989311
1607.421875	-67.743240
1609.375000	-68.009056
1611.328125	-68.108498
1613.281250	-67.949715
1615.234375	-67.544388
1617.187500	-67.459160
1619.140625	-66.741943
1621.093750	-67.109657
1623.046875	-66.982254
1625.000000	-66.283157
1626.953125	-66.474335
1628.906250	-66.814354
1630.859375	-66.678993
1632.812500	-66.407433
1634.765625	-66.637985
1636.718750	-66.211464
1638.671875	-65.622818
1640.625000	-65.539932
1642.578125	-65.296326
1644.531250	-65.043549
1646.484375	-65.631493
1648.437500	-65.258476
1650.390625	-65.373817
1652.343750	-64.477654
1654.296875	-64.137276
1656.250000	-64.100151
1658.203125	-63.714695
1660.156250	-63.804962
1662.109375	-63.259480
1664.062500	-63.348724
1666.015625	-62.879810
1667.968750	-62.793766
1669.921875	-62.440186
1671.875000	-62.216476
1673.828125	-62.343815
1675.781250	-62.024944
1677.734375	-61.155754
1679.687500	-60.815590
1681.640625	-60.983513
1683.593750	-60.142029
1685.546875	-60.346439
1687.500000	-59.923512
1689.453125	-59.386787
1691.406250	-58.695759
1693.359375	-58.222160
1695.312500	-58.293827
1697.265625	-57.367474
1699.218750	-56.266014
1701.171875	-56.959713
1703.125000	-56.115871
1705.078125	-54.999390
1707.031250	-54.299545
1708.984375	-53.947094
1710.937500	-53.475101
1712.890625	-53.365562
1714.843750	-52.372429
1716.796875	-52.233257
1718.750000	-52.081181
1720.703125	-51.890308
1722.656250	-52.052761
1724.609375	-51.860313
1726.562500	-52.108589
1728.515625	-52.454388
1730.468750	-53.235981
1732.421875	-53.217613
1734.375000	-53.815418
1736.328125	-53.673050
1738.281250	-54.979839
1740.234375	-55.758858
1742.187500	-55.984226
1744.140625	-56.267498
1746.093750	-56.914642
1748.046875	-57.866310
1750.000000	-57.496254
1751.953125	-57.315193
1753.906250	-58.105816
1755.859375	-58.837788
1757.812500	-59.495571
1759.765625	-59.950985
1761.718750	-60.474113
1763.671875	-60.471149
1765.625000	-60.497555
1767.578125	-60.843342
1769.531250	-60.908939
1771.484375	-61.910824
1773.437500	-62.199268
1775.390625	-62.688957
1777.343750	-62.666245
1779.296875	-62.480061
1781.250000	-62.770927
1783.203125	-62.638557
1785.156250	-63.061646
1787.109375	-63.065060
1789.062500	-63.010216
1791.015625	-63.446442
1792.968750	-64.251343
1794.921875	-63.662857
1796.875000	-63.575607
1798.828125	-63.777817
1800.781250	-63.620834
1802.734375	-64.680588
1804.687500	-65.154732
1806.640625	-64.875618
1808.593750	-64.713173
1810.546875	-65.517418
1812.500000	-65.322182
1814.453125	-64.718628
1816.406250	-64.992897
1818.359375	-65.883102
1820.312500	-65.471848
1822.265625	-65.382652
1824.218750	-65.954941
1826.171875	-65.628723
1828.125000	-65.336250
1830.078125	-65.537682
1832.031250	-65.395767
1833.984375	-65.638718
1835.937500	-65.608650
1837.890625	-66.629738
1839.843750	-66.164749
1841.796875	-65.729233
1843.750000	-65.579079
1845.703125	-65.752266
1847.656250	-66.390419
1849.609375	-67.226044
1851.562500	-66.576897
1853.515625	-66.516579
1855.468750	-66.035172
1857.421875	-65.246216
1859.375000	-65.015038
1861.328125	-66.126534
1863.281250	-66.109688
1865.234375	-65.782196
1867.187500	-66.319771
1869.140625	-66.974754
1871.093750	-66.785019
1873.046875	-65.985695
1875.000000	-65.733292
1876.953125	-66.022522
1878.906250	-66.157166
1880.859375	-66.412743
1882.812500	-66.130775
1884.765625	-66.327560
1886.718750	-65.721695
1888.671875	-65.145943
1890.625000	-65.008957
1892.578125	-65.110786
1894.531250	-65.259369
1896.484375	-65.221115
1898.437500	-65.302322
1900.390625	-65.711899
1902.343750	-65.821510
1904.296875	-64.953209
1906.250000	-64.439697
1908.203125	-64.071800
1910.156250	-64.087585
1912.109375	-63.920708
1914.062500	-64.286598
1916.015625	-64.049088
1917.968750	-64.339378
1919.921875	-64.119049
1921.875000	-64.041245
1923.828125	-63.888351
1925.781250	-63.844059
1927.734375	-63.023392
1929.687500	-63.602554
1931.640625	-63.598732
1933.593750	-63.085484
1935.546875	-62.688492
1937.500000	-62.980438
1939.453125	-62.210503
1941.406250	-62.051155
1943.359375	-62.541683
1945.312500	-61.925625
1947.265625	-61.447762
1949.218750	-61.373165
1951.171875	-61.946136
1953.125000	-61.297409
1955.078125	-60.724812
1957.031250	-60.286381
1958.984375	-60.040321
1960.937500	-59.857922
1962.890625	-59.811100
1964.843750	-58.604397
1966.796875	-58.488892
1968.750000	-58.076931
1970.703125	-57.382824
1972.656250	-57.225590
1974.609375	-56.655701
1976.562500	-56.415314
1978.515625	-56.422375
1980.468750	-55.891991
1982.421875	-55.662674
1984.375000	-55.647476
1986.328125	-54.566715
1988.281250	-53.954716
1990.234375	-53.640198
1992.187500	-53.331242
1994.140625	-52.134026
1996.093750	-51.125603
1998.046875	-51.644371
2000.000000	-51.613068
2001.953125	-49.982815
2003.906250	-49.288582
2005.859375	-49.196198
2007.812500	-49.672218
2009.765625	-49.490295
2011.718750	-49.426983
2013.671875	-49.948864
2015.625000	-50.592659
2017.578125	-50.930851
2019.531250	-51.095676
2021.484375	-51.040596
2023.437500	-51.528862
2025.390625	-52.107040
2027.343750	-53.247326
2029.296875	-53.739239
2031.250000	-54.658134
2033.203125	-54.913471
2035.156250	-54.795021
2037.109375	-55.166775
2039.062500	-55.884319
2041.015625	-56.162369
2042.968750	-56.707836
2044.921875	-56.777260
2046.875000	-57.255177
2048.828125	-57.843086
2050.781250	-57.993584
2052.734375	-57.639126
2054.687500	-58.696392
2056.640625	-58.132969
2058.593750	-58.840431
2060.546875	-59.300659
2062.500000	-59.181732
2064.453125	-59.806644
2066.406250	-60.337257
2068.359375	-60.079868
2070.312500	-60.500225
2072.265625	-60.375851
2074.218750	-60.288380
2076.171875	-60.797779
2078.125000	-61.227467
2080.078125	-61.563694
2082.031250	-61.543446
2083.984375	-61.631050
2085.937500	-62.172253
2087.890625	-61.692760
2089.843750	-61.744316
2091.796875	-61.479614
2093.750000	-62.497562
2095.703125	-62.689899
2097.656250	-62.021469
2099.609375	-61.912243
2101.562500	-62.191216
2103.515625	-62.032063
2105.468750	-62.682430
2107.421875	-63.032841
2109.375000	-62.672623
2111.328125	-62.746014
2113.281250	-63.034760
2115.234375	-63.129986
2117.187500	-63.191296
2119.140625	-62.698811
2121.093750	-62.645397
2123.046875	-62.359081
2125.000000	-62.834686
2126.953125	-63.469215
2128.906250	-63.217682
2130.859375	-63.451626
2132.812500	-63.893185
2134.765625	-63.594585
2136.718750	-63.027344
2138.671875	-64.331047
2140.625000	-64.587418
2142.578125	-63.964424
2144.531250	-64.129456
2146.484375	-63.403397
2148.437500	-63.109070
2150.390625	-63.313461
2152.343750	-63.433399
2154.296875	-63.371906
2156.250000	-63.341522
2158.203125	-63.779755
2160.156250	-63.723549
2162.109375	-63.214443
2164.062500	-62.921543
2166.015625	-63.224827
2167.968750	-62.695057
2169.921875	-62.458115
2171.875000	-62.502228
2173.828125	-62.315525
2175.781250	-63.598446
2177.734375	-63.295322
2179.687500	-63.653389
2181.640625	-63.534206
2183.593750	-62.527611
2185.546875	-62.401348
2187.500000	-62.792194
2189.453125	-61.970940
2191.406250	-62.668732
2193.359375	-62.539627
2195.312500	-62.360973
2197.265625	-61.462433
2199.218750	-60.969292
2201.171875	-61.327179
2203.125000	-61.308041
2205.078125	-61.010994
2207.031250	-61.467495
2208.984375	-60.765526
2210.937500	-60.425526
2212.890625	-60.386097
2214.843750	-60.533566
2216.796875	-59.685890
2218.750000	-59.393715
2220.703125	-59.715641
2222.656250	-59.145340
2224.609375	-59.118187
2226.562500	-58.817490
2228.515625	-58.915787
2230.468750	-58.899544
2232.421875	-58.827686
2234.375000	-58.335384
2236.328125	-58.290039
2238.281250	-57.921894
2240.234375	-57.487381
2242.187500	-57.410133
2244.140625	-57.349812
2246.093750	-56.817879
2248.046875	-56.646725
2250.000000	-55.808212
2251.953125	-55.142494
2253.906250	-55.335739
2255.859375	-55.108364
2257.812500	-54.752434
2259.765625	-54.706089
2261.718750	-54.148148
2263.671875	-53.507744
2265.625000	-52.512993
2267.578125	-52.257236
2269.531250	-51.576988
2271.484375	-51.383694
2273.437500	-51.295193
2275.390625	-50.900021
2277.343750	-49.813553
2279.296875	-49.138348
2281.250000	-49.378349
2283.203125	-48.750553
2285.156250	-48.617817
2287.109375	-47.548862
2289.062500	-46.811859
2291.015625	-46.598499
2292.968750	-45.976238
2294.921875	-47.274498
2296.875000	-47.413860
2298.828125	-47.275833
2300.781250	-47.290329
2302.734375	-47.416672
2304.687500	-47.949326
2306.640625	-49.247330
2308.593750	-49.365627
2310.546875	-49.586025
2312.500000	-50.397549
2314.453125	-50.812321
2316.406250	-51.559963
2318.359375	-52.410553
2320.312500	-52.159149
2322.265625	-52.306503
2324.218750	-52.957813
2326.171875	-53.750011
2328.125000	-53.347153
2330.078125	-53.456818
2332.031250	-53.784462
2333.984375	-55.258442
2335.937500	-55.534130
2337.890625	-55.964439
2339.843750	-55.321457
2341.796875	-56.092640
2343.750000	-56.541401
2345.703125	-56.015381
2347.656250	-56.665760
2349.609375	-57.461609
2351.562500	-57.292511
2353.515625	-57.532257
2355.468750	-57.751534
2357.421875	-57.897945
2359.375000	-58.443851
2361.328125	-58.464005
2363.281250	-58.592659
2365.234375	-58.079887
2367.187500	-58.745689
2369.140625	-58.634315
2371.093750	-58.804863
2373.046875	-59.337521
2375.000000	-59.162289
2376.953125	-59.755157
2378.906250	-60.062878
2380.859375	-59.885498
2382.812500	-59.991737
2384.765625	-60.131187
2386.718750	-60.237682
2388.671875	-60.773029
2390.625000	-60.579266
2392.578125	-59.572021
2394.531250	-59.962803
2396.484375	-60.069233
2398.437500	-60.232685
2400.390625	-60.420788
2402.343750	-60.144722
2404.296875	-59.886940
2406.250000	-60.708435
2408.203125	-61.027378
2410.156250	-61.035896
2412.109375	-60.571426
2414.062500	-60.375862
2416.015625	-59.841484
2417.968750	-60.111633
2419.921875	-60.347805
2421.875000	-60.540710
2423.828125	-60.766644
2425.781250	-61.105675
2427.734375	-61.040913
2429.687500	-60.645142
2431.640625	-60.415127
2433.593750	-60.970520
2435.546875	-61.423237
2437.500000	-61.220329
2439.453125	-60.989567
2441.406250	-61.549000
2443.359375	-61.393585
2445.312500	-61.246246
2447.265625	-60.989159
2449.218750	-60.784443
2451.171875	-59.907310
2453.125000	-59.918312
2455.078125	-60.385502
2457.031250	-60.089149
2458.984375	-60.640896
2460.937500	-60.161980
2462.890625	-59.524986
2464.843750	-59.653214
2466.796875	-60.136314
2468.750000	-60.547085
2470.703125	-60.493931
2472.656250	-59.810184
2474.609375	-59.933697
2476.562500	-59.921490
2478.515625	-59.690998
2480.468750	-59.636414
2482.421875	-59.421772
2484.375000	-59.423626
2486.328125	-58.854816
2488.281250	-58.543102
2490.234375	-58.577225
2492.187500	-58.562538
2494.140625	-58.068584
2496.093750	-58.344635
2498.046875	-58.175583
2500.000000	-57.848228
2501.953125	-57.459122
2503.906250	-57.652336
2505.859375	-57.673836
2507.812500	-57.593491
2509.765625	-57.506077
2511.718750	-56.931747
2513.671875	-57.178566
2515.625000	-56.802170
2517.578125	-56.081890
2519.531250	-56.237457
2521.484375	-56.300617
2523.437500	-55.803658
2525.390625	-55.585617
2527.343750	-55.039913
2529.296875	-54.340782
2531.250000	-54.451584
2533.203125	-54.479340
2535.156250	-54.968727
2537.109375	-54.202736
2539.062500	-53.652775
2541.015625	-52.767914
2542.968750	-52.115604
2544.921875	-52.100609
2546.875000	-51.559513
2548.828125	-50.994816
2550.781250	-50.216282
2552.734375	-49.708652
2554.687500	-50.028587
2556.640625	-50.136963
2558.593750	-48.824879
2560.546875	-48.664471
2562.500000	-48.807369
2564.453125	-47.622055
2566.406250	-47.543938
2568.359375	-46.885212
2570.312500	-45.695618
2572.265625	-45.602688
2574.218750	-45.644821
2576.171875	-44.603142
2578.125000	-43.754223
2580.078125	-44.308029
2582.031250	-45.129417
2583.984375	-45.007187
2585.937500	-45.482307
2587.890625	-45.161949
2589.843750	-45.644543
2591.796875	-45.769539
2593.750000	-46.737030
2595.703125	-47.696472
2597.656250	-46.960640
2599.609375	-47.844337
2601.562500	-48.787842
2603.515625	-49.202301
2605.468750	-49.236351
2607.421875	-49.028111
2609.375000	-49.621929
2611.328125	-50.297741
2613.281250	-50.848873
2615.234375	-51.521675
2617.187500	-51.624485
2619.140625	-51.602631
2621.093750	-52.068718
2623.046875	-52.910904
2625.000000	-53.113827
2626.953125	-53.639290
2628.906250	-53.435875
2630.859375	-52.751816
2632.812500	-53.808392
2634.765625	-54.768299
2636.718750	-55.030354
2638.671875	-54.918945
2640.625000	-54.635445
2642.578125	-54.547047
2644.531250	-54.479485
2646.484375	-54.927502
2648.437500	-54.686726
2650.390625	-54.898895
2652.343750	-55.328396
2654.296875	-56.021042
2656.250000	-55.288525
2658.203125	-55.628471
2660.156250	-56.376583
2662.109375	-56.832981
2664.062500	-57.410267
2666.015625	-56.959198
2667.968750	-56.633633
2669.921875	-56.683407
2671.875000	-56.551575
2673.828125	-57.015480
2675.781250	-57.931843
2677.734375	-58.212456
2679.687500	-57.442295
2681.640625	-57.693665
2683.593750	-58.199982
2685.546875	-58.799004
2687.500000	-57.963238
2689.453125	-58.031956
2691.406250	-58.294743
2693.359375	-58.196526
2695.312500	-58.310741
2697.265625	-57.820316
2699.218750	-57.993542
2701.171875	-58.144169
2703.125000	-57.620842
2705.078125	-57.988781
2707.031250	-58.169281
2708.984375	-57.542953
2710.937500	-57.956371
2712.890625	-58.418251
2714.843750	-58.514492
2716.796875	-58.199341
2718.750000	-58.336693
2720.703125	-58.141438
2722.656250	-58.194752
2724.609375	-58.460915
2726.562500	-57.833652
2728.515625	-58.048943
2730.468750	-58.293747
2732.421875	-58.864834
2734.375000	-58.189087
2736.328125	-58.080544
2738.281250	-57.420490
2740.234375	-57.994835
2742.187500	-58.712914
2744.140625	-57.512634
2746.093750	-57.362305
2748.046875	-58.073006
2750.000000	-57.611801
2751.953125	-57.701244
2753.906250	-57.081882
2755.859375	-57.106453
2757.812500	-56.605507
2759.765625	-56.630478
2761.718750	-56.428932
2763.671875	-56.717754
2765.625000	-57.016468
2767.578125	-56.600552
2769.531250	-56.558910
2771.484375	-56.325077
2773.437500	-56.719242
2775.390625	-56.173489
2777.343750	-56.235153
2779.296875	-56.496670
2781.250000	-56.520176
2783.203125	-56.570782
2785.156250	-56.065346
2787.109375	-55.793304
2789.062500	-56.307243
2791.015625	-55.574310
2792.968750	-55.256226
2794.921875	-54.835899
2796.875000	-54.925400
2798.828125	-54.967793
2800.781250	-54.631065
2802.734375	-54.621449
2804.687500	-54.181679
2806.640625	-53.178139
2808.593750	-53.558994
2810.546875	-53.659969
2812.500000	-53.141991
2814.453125	-52.944767
2816.406250	-52.117580
2818.359375	-51.508179
2820.312500	-50.829433
2822.265625	-50.741158
2824.218750	-50.610294
2826.171875	-50.818951
2828.125000	-50.686783
2830.078125	-49.730309
2832.031250	-49.184914
2833.984375	-48.920006
2835.937500	-48.760265
2837.890625	-48.930218
2839.843750	-48.416107
2841.796875	-47.455456
2843.750000	-46.829197
2845.703125	-46.590935
2847.656250	-46.396488
2849.609375	-45.592705
2851.562500	-45.359917
2853.515625	-44.844975
2855.468750	-44.032291
2857.421875	-44.184483
2859.375000	-44.074497
2861.328125	-43.606041
2863.281250	-42.872169
2865.234375	-42.267452
2867.187500	-42.472305
2869.140625	-42.164368
2871.093750	-42.239792
2873.046875	-42.772926
2875.000000	-43.252804
2876.953125	-43.491570
2878.906250	-43.843647
2880.859375	-44.214371
2882.812500	-44.070908
2884.765625	-44.953457
2886.718750	-45.283756
2888.671875	-46.074421
2890.625000	-46.950813
2892.578125	-47.202335
2894.531250	-47.186073
2896.484375	-47.959984
2898.437500	-47.502361
2900.390625	-47.610184
2902.343750	-48.381844
2904.296875	-49.491203
2906.250000	-49.993484
2908.203125	-49.775375
2910.156250	-50.425068
2912.109375	-50.323689
2914.062500	-51.142769
2916.015625	-51.644829
2917.968750	-51.434174
2919.921875	-51.272827
2921.875000	-51.692253
2923.828125	-52.089352
2925.781250	-51.875534
2927.734375	-52.525002
2929.687500	-53.035255
2931.640625	-53.497978
2933.593750	-53.446278
2935.546875	-53.596493
2937.500000	-52.873089
2939.453125	-53.094193
2941.406250	-53.400070
2943.359375	-52.984966
2945.312500	-53.375797
2947.265625	-53.743496
2949.218750	-54.107265
2951.171875	-54.107563
2953.125000	-53.711792
2955.078125	-54.078259
2957.031250	-54.743343
2958.984375	-54.872971
2960.937500	-54.613422
2962.890625	-54.427017
2964.843750	-54.267075
2966.796875	-54.836861
2968.750000	-55.364014
2970.703125	-55.913914
2972.656250	-55.666359
2974.609375	-55.703384
2976.562500	-54.853958
2978.515625	-55.758728
2980.468750	-55.811249
2982.421875	-55.527637
2984.375000	-56.089146
2986.328125	-55.974056
2988.281250	-55.847198
2990.234375	-56.673458
2992.187500	-55.654282
2994.140625	-56.021069
2996.093750	-56.893639
2998.046875	-56.413292
3000.000000	-55.868664
3001.953125	-55.998867
3003.906250	-56.084991
3005.859375	-55.550785
3007.812500	-55.623074
3009.765625	-55.686378
3011.718750	-55.591312
3013.671875	-55.904793
3015.625000	-56.405331
3017.578125	-55.843105
3019.531250	-56.192608
3021.484375	-56.678997
3023.437500	-56.105389
3025.390625	-56.013252
3027.343750	-55.828606
3029.296875	-55.749325
3031.250000	-56.063587
3033.203125	-56.132771
3035.156250	-55.821835
3037.109375	-55.217403
3039.062500	-55.383671
3041.015625	-55.079212
3042.968750	-55.276386
3044.921875	-56.058083
3046.875000	-55.289753
3048.828125	-54.974670
3050.781250	-54.943386
3052.734375	-55.327251
3054.687500	-55.327003
3056.640625	-54.864540
3058.593750	-55.063927
3060.546875	-54.656105
3062.500000	-54.497799
3064.453125	-54.178482
3066.406250	-54.307926
3068.359375	-54.643860
3070.312500	-54.497841
3072.265625	-53.545555
3074.218750	-53.779636
3076.171875	-52.950592
3078.125000	-53.335590
3080.078125	-53.015217
3082.031250	-52.690567
3083.984375	-52.798988
3085.937500	-52.749630
3087.890625	-53.166737
3089.843750	-52.294872
3091.796875	-51.796326
3093.750000	-51.713989
3095.703125	-51.567253
3097.656250	-51.142750
3099.609375	-50.511658
3101.562500	-50.233616
3103.515625	-50.261642
3105.468750	-49.806347
3107.421875	-49.713097
3109.375000	-49.766804
3111.328125	-49.343689
3113.281250	-48.495674
3115.234375	-48.330299
3117.187500	-48.559200
3119.140625	-47.615185
3121.093750	-47.560963
3123.046875	-47.221962
3125.000000	-46.266224
3126.953125	-46.333794
3128.906250	-46.446167
3130.859375	-45.589001
3132.812500	-45.315155
3134.765625	-45.027187
3136.718750	-44.302254
3138.671875	-44.153687
3140.625000	-43.906750
3142.578125	-43.396877
3144.531250	-42.885483
3146.484375	-42.195866
3148.437500	-41.727863
3150.390625	-41.947449
3152.343750	-41.986500
3154.296875	-41.565052
3156.250000	-41.463352
3158.203125	-41.506207
3160.156250	-42.372200
3162.109375	-42.557602
3164.062500	-43.309139
3166.015625	-43.050404
3167.968750	-43.290306
3169.921875	-43.086674
3171.875000	-43.586712
3173.828125	-44.700638
3175.781250	-44.872707
3177.734375	-44.917980
3179.687500	-45.204964
3181.640625	-46.064659
3183.593750	-45.888645
3185.546875	-46.105125
3187.500000	-46.553471
3189.453125	-47.157497
3191.406250	-47.614201
3193.359375	-48.947094
3195.312500	-49.027664
3197.265625	-48.919365
3199.218750	-49.480858
3201.171875	-49.191898
3203.125000	-49.663120
3205.078125	-49.875057
3207.031250	-49.923256
3208.984375	-49.915054
3210.937500	-50.459934
3212.890625	-51.317707
3214.843750	-51.339466
3216.796875	-51.318619
3218.750000	-51.478573
3220.703125	-51.958992
3222.656250	-52.154259
3224.609375	-52.389130
3226.562500	-53.103779
3228.515625	-53.194790
3230.468750	-52.795193
3232.421875	-52.517647
3234.375000	-52.822571
3236.328125	-53.202679
3238.281250	-53.664642
3240.234375	-53.028717
3242.187500	-52.699280
3244.140625	-53.299706
3246.093750	-54.174240
3248.046875	-53.890388
3250.000000	-53.290234
3251.953125	-52.930206
3253.906250	-53.478542
3255.859375	-53.648293
3257.812500	-54.458660
3259.765625	-54.276485
3261.718750	-54.522522
3263.671875	-54.657375
3265.625000	-54.021366
3267.578125	-54.706963
3269.531250	-54.565792
3271.484375	-54.653534
3273.437500	-55.573772
3275.390625	-54.744747
3277.343750	-54.484024
3279.296875	-53.987156
3281.250000	-53.999035
3283.203125	-55.201591
3285.156250	-54.929798
3287.109375	-55.214771
3289.062500	-55.039932
3291.015625	-55.195377
3292.968750	-55.346714
3294.921875	-55.080765
3296.875000	-55.362453
3298.828125	-55.268620
3300.781250	-55.344215
3302.734375	-54.892780
3304.687500	-55.359386
3306.640625	-55.871685
3308.593750	-55.484550
3310.546875	-54.993385
3312.500000	-54.893486
3314.453125	-55.548512
3316.406250	-54.734173
3318.359375	-54.851330
3320.312500	-54.973270
3322.265625	-54.876793
3324.218750	-54.335148
3326.171875	-54.466305
3328.125000	-54.829475
3330.078125	-54.725296
3332.031250	-54.753410
3333.984375	-55.474209
3335.937500	-54.393944
3337.890625	-54.069145
3339.843750	-53.638248
3341.796875	-53.969376
3343.750000	-54.070190
3345.703125	-53.841537
3347.656250	-53.783394
3349.609375	-54.314178
3351.562500	-53.588879
3353.515625	-53.289028
3355.468750	-53.024780
3357.421875	-52.893169
3359.375000	-53.643272
3361.328125	-53.452667
3363.281250	-52.825077
3365.234375	-52.817570
3367.187500	-52.755627
3369.140625	-51.837883
3371.093750	-51.982437
3373.046875	-52.189720
3375.000000	-52.021675
3376.953125	-51.220520
3378.906250	-51.522354
3380.859375	-51.229336
3382.812500	-50.936405
3384.765625	-49.793636
3386.718750	-49.858021
3388.671875	-50.781998
3390.625000	-50.554337
3392.578125	-50.431713
3394.531250	-50.705238
3396.484375	-49.686867
3398.437500	-49.535477
3400.390625	-49.145985
3402.343750	-48.364136
3404.296875	-48.376873
3406.250000	-47.645321
3408.203125	-46.810181
3410.156250	-45.633072
3412.109375	-46.425816
3414.062500	-47.198139
3416.015625	-46.133369
3417.968750	-45.360432
3419.921875	-44.851009
3421.875000	-44.619408
3423.828125	-44.280834
3425.781250	-43.696033
3427.734375	-43.315784
3429.687500	-43.117390
3431.640625	-42.372753
3433.593750	-42.254436
3435.546875	-42.140095
3437.500000	-41.237873
3439.453125	-41.314014
3441.406250	-41.302723
3443.359375	-41.812828
3445.312500	-42.388821
3447.265625	-42.175041
3449.218750	-42.165279
3451.171875	-42.590294
3453.125000	-43.831680
3455.078125	-43.958427
3457.031250	-43.237377
3458.984375	-43.740906
3460.937500	-44.116158
3462.890625	-44.727627
3464.843750	-44.912445
3466.796875	-45.254864
3468.750000	-45.495987
3470.703125	-46.125561
3472.656250	-46.225220
3474.609375	-46.709309
3476.562500	-48.057209
3478.515625	-48.116158
3480.468750	-47.646969
3482.421875	-49.015839
3484.375000	-48.901264
3486.328125	-49.070354
3488.281250	-49.049786
3490.234375	-49.420425
3492.187500	-49.786011
3494.140625	-50.238342
3496.093750	-50.543575
3498.046875	-50.232140
3500.000000	-50.639641
3501.953125	-50.960663
3503.906250	-51.232059
3505.859375	-52.336452
3507.812500	-51.695450
3509.765625	-51.753536
3511.718750	-52.513832
3513.671875	-53.030399
3515.625000	-52.683338
3517.578125	-52.508564
3519.531250	-53.027283
3521.484375	-52.823174
3523.437500	-52.569187
3525.390625	-53.132881
3527.343750	-53.223072
3529.296875	-54.238258
3531.250000	-54.294674
3533.203125	-53.423256
3535.156250	-53.119980
3537.109375	-53.464802
3539.062500	-54.342094
3541.015625	-54.699596
3542.968750	-54.353271
3544.921875	-53.813755
3546.875000	-54.629330
3548.828125	-54.569649
3550.781250	-54.354645
3552.734375	-54.753319
3554.687500	-55.331676
3556.640625	-55.076027
3558.593750	-55.023209
3560.546875	-55.127434
3562.500000	-54.635712
3564.453125	-54.915810
3566.406250	-54.648251
3568.359375	-54.861237
3570.312500	-55.326672
3572.265625	-54.992622
3574.218750	-55.315044
3576.171875	-55.362583
3578.125000	-55.334053
3580.078125	-55.186359
3582.031250	-54.995159
3583.984375	-55.755863
3585.937500	-55.955902
3587.890625	-55.230930
3589.843750	-55.320267
3591.796875	-55.467041
3593.750000	-55.235130
3595.703125	-55.099735
3597.656250	-55.508469
3599.609375	-55.124592
3601.562500	-54.825119
3603.515625	-55.078030
3605.468750	-55.788097
3607.421875	-54.889107
3609.375000	-54.141811
3611.328125	-54.183605
3613.281250	-55.116817
3615.234375	-55.238785
3617.187500	-55.920475
3619.140625	-55.563622
3621.093750	-53.932625
3623.046875	-54.409225
3625.000000	-54.036049
3626.953125	-54.083469
3628.906250	-54.888000
3630.859375	-54.671230
3632.812500	-54.583336
3634.765625	-54.175694
3636.718750	-54.123852
3638.671875	-53.707424
3640.625000	-53.243408
3642.578125	-53.377308
3644.531250	-53.545467
3646.484375	-53.774456
3648.437500	-54.009296
3650.390625	-53.838459
3652.343750	-53.550949
3654.296875	-52.942802
3656.250000	-52.912357
3658.203125	-53.052658
3660.156250	-52.914955
3662.109375	-52.627270
3664.062500	-52.268894
3666.015625	-51.816799
3667.968750	-51.916439
3669.921875	-51.759541
3671.875000	-51.234676
3673.828125	-51.388103
3675.781250	-50.864037
3677.734375	-50.577141
3679.687500	-50.718853
3681.640625	-50.574718
3683.593750	-50.223953
3685.546875	-49.915054
3687.500000	-49.399010
3689.453125	-48.627289
3691.406250	-48.158871
3693.359375	-47.444801
3695.312500	-47.758739
3697.265625	-47.511890
3699.218750	-46.905304
3701.171875	-46.651646
3703.125000	-45.914310
3705.078125	-45.273479
3707.031250	-45.779522
3708.984375	-46.393135
3710.937500	-45.271847
3712.890625	-45.265125
3714.843750	-45.071461
3716.796875	-44.198380
3718.750000	-43.387245
3720.703125	-42.831924
3722.656250	-42.800163
3724.609375	-42.458931
3726.562500	-42.243362
3728.515625	-42.303036
3730.468750	-42.545685
3732.421875	-42.418537
3734.375000	-43.172401
3736.328125	-43.512802
3738.281250	-43.716873
3740.234375	-44.422840
3742.187500	-45.353077
3744.140625	-45.018188
3746.093750	-44.750385
3748.046875	-45.520107
3750.000000	-46.390038
3751.953125	-46.461918
3753.906250	-46.480927
3755.859375	-47.454205
3757.812500	-48.143917
3759.765625	-48.116367
3761.718750	-48.816196
3763.671875	-48.977360
3765.625000	-49.278870
3767.578125	-49.460228
3769.531250	-49.757702
3771.484375	-49.353714
3773.437500	-49.778580
3775.390625	-51.478699
3777.343750	-50.700649
3779.296875	-50.290466
3781.250000	-51.011951
3783.203125	-51.363544
3785.156250	-51.190929
3787.109375	-51.777164
3789.062500	-52.648609
3791.015625	-52.553741
3792.968750	-52.533375
3794.921875	-52.743168
3796.875000	-52.840725
3798.828125	-52.951473
3800.781250	-53.557720
3802.734375	-53.210629
3804.687500	-53.511490
3806.640625	-54.090805
3808.593750	-54.535534
3810.546875	-54.337017
3812.500000	-54.281147
3814.453125	-53.771049
3816.406250	-53.938854
3818.359375	-54.541771
3820.312500	-54.994579
3822.265625	-55.413857
3824.218750	-55.198704
3826.171875	-54.723011
3828.125000	-54.870037
3830.078125	-55.154034
3832.031250	-55.253590
3833.984375	-55.278538
3835.937500	-55.298073
3837.890625	-55.741146
3839.843750	-55.352879
3841.796875	-56.143669
3843.750000	-56.050236
3845.703125	-55.498245
3847.656250	-55.681751
3849.609375	-55.870163
3851.562500	-55.867374
3853.515625	-55.400726
3855.468750	-55.457664
3857.421875	-56.280777
3859.375000	-56.572437
3861.328125	-56.634068
3863.281250	-56.383572
3865.234375	-56.685116
3867.187500	-56.309681
3869.140625	-56.923378
3871.093750	-56.287262
3873.046875	-55.742340
3875.000000	-56.225075
3876.953125	-56.995083
3878.906250	-56.547039
3880.859375	-56.769901
3882.812500	-56.078026
3884.765625	-56.181583
3886.718750	-56.249836
3888.671875	-56.157715
3890.625000	-55.496284
3892.578125	-55.622597
3894.531250	-55.596191
3896.484375	-55.789978
3898.437500	-56.688744
3900.390625	-56.516056
3902.343750	-55.701481
3904.296875	-56.333057
3906.250000	-56.915207
3908.203125	-55.778622
3910.156250	-55.374405
3912.109375	-55.119148
3914.062500	-55.052536
3916.015625	-54.860607
3917.968750	-54.991356
3919.921875	-55.403885
3921.875000	-55.199833
3923.828125	-55.050861
3925.781250	-54.831566
3927.734375	-54.671745
3929.687500	-54.279064
3931.640625	-53.559174
3933.593750	-53.676922
3935.546875	-53.840462
3937.500000	-53.111813
3939.453125	-53.669846
3941.406250	-53.867683
3943.359375	-53.122593
3945.312500	-53.232597
3947.265625	-54.113525
3949.218750	-52.527233
3951.171875	-52.230068
3953.125000	-52.936447
3955.078125	-52.470680
3957.031250	-52.150032
3958.984375	-51.911724
3960.937500	-51.920631
3962.890625	-51.969963
3964.843750	-51.961388
3966.796875	-51.137356
3968.750000	-51.206932
3970.703125	-50.824436
3972.656250	-49.817303
3974.609375	-49.635303
3976.562500	-49.862450
3978.515625	-49.416386
3980.468750	-48.605240
3982.421875	-48.155807
3984.375000	-48.443607
3986.328125	-48.015495
3988.281250	-47.130116
3990.234375	-46.791061
3992.187500	-46.803589
3994.140625	-46.210384
3996.093750	-45.864147
3998.046875	-45.645878
4000.000000	-45.586388
4001.953125	-44.682652
4003.906250	-44.445820
4005.859375	-43.792828
4007.812500	-43.405876
4009.765625	-43.388077
4011.718750	-44.131332
4013.671875	-43.544998
4015.625000	-43.224735
4017.578125	-43.648445
4019.531250	-43.799026
4021.484375	-44.154186
4023.437500	-43.954605
4025.390625	-43.968426
4027.343750	-44.808376
4029.296875	-45.241238
4031.250000	-44.942604
4033.203125	-46.045677
4035.156250	-46.586552
4037.109375	-46.763905
4039.062500	-46.847488
4041.015625	-47.567200
4042.968750	-48.135422
4044.921875	-48.450485
4046.875000	-48.599506
4048.828125	-48.930916
4050.781250	-49.762402
4052.734375	-50.031586
4054.687500	-50.229137
4056.640625	-50.727985
4058.593750	-50.605072
4060.546875	-51.194603
4062.500000	-51.444324
4064.453125	-51.601746
4066.406250	-51.222683
4068.359375	-51.785393
4070.312500	-51.497746
4072.265625	-51.832417
4074.218750	-53.052605
4076.171875	-53.261486
4078.125000	-53.023502
4080.078125	-53.374069
4082.031250	-53.901543
4083.984375	-53.641041
4085.937500	-54.262192
4087.890625	-54.588375
4089.843750	-54.363125
4091.796875	-55.154854
4093.750000	-55.127831
4095.703125	-55.259960
4097.656250	-55.156132
4099.609375	-55.317890
4101.562500	-56.293030
4103.515625	-55.432617
4105.468750	-55.302544
4107.421875	-55.126724
4109.375000	-55.713169
4111.328125	-55.729820
4113.281250	-56.361122
4115.234375	-56.520863
4117.187500	-56.179482
4119.140625	-56.025394
4121.093750	-56.175194
4123.046875	-56.233192
4125.000000	-56.883537
4126.953125	-57.233162
4128.906250	-57.005402
4130.859375	-56.839386
4132.812500	-56.382122
4134.765625	-56.759396
4136.718750	-56.971867
4138.671875	-56.904289
4140.625000	-57.059288
4142.578125	-56.727730
4144.531250	-56.694592
4146.484375	-56.459507
4148.437500	-57.425533
4150.390625	-57.286446
4152.343750	-57.202255
4154.296875	-56.703274
4156.250000	-56.277920
4158.203125	-56.925442
4160.156250	-56.995064
4162.109375	-57.062489
4164.062500	-56.878395
4166.015625	-56.270191
4167.968750	-56.753674
4169.921875	-57.806587
4171.875000	-57.740982
4173.828125	-56.988667
4175.781250	-56.363129
4177.734375	-56.419964
4179.687500	-56.926655
4181.640625	-56.720390
4183.593750	-56.453220
4185.546875	-57.257542
4187.500000	-56.860844
4189.453125	-57.028542
4191.406250	-55.951797
4193.359375	-55.415173
4195.312500	-56.604851
4197.265625	-56.537987
4199.218750	-55.881618
4201.171875	-56.264645
4203.125000	-55.780525
4205.078125	-55.355812
4207.031250	-55.443840
4208.984375	-55.278179
4210.937500	-55.817463
4212.890625	-55.925701
4214.843750	-55.654121
4216.796875	-54.798302
4218.750000	-54.806179
4220.703125	-55.251358
4222.656250	-54.566326
4224.609375	-54.448494
4226.562500	-54.241020
4228.515625	-53.941612
4230.468750	-54.408089
4232.421875	-53.817963
4234.375000	-53.300537
4236.328125	-53.470081
4238.281250	-53.705605
4240.234375	-53.330086
4242.187500	-52.540554
4244.140625	-51.975471
4246.093750	-52.507629
4248.046875	-52.845886
4250.000000	-51.618671
4251.953125	-50.923073
4253.906250	-51.295074
4255.859375	-51.104126
4257.812500	-50.619965
4259.765625	-49.994068
4261.718750	-49.507858
4263.671875	-49.702461
4265.625000	-49.516972
4267.578125	-49.767090
4269.531250	-48.856323
4271.484375	-48.192753
4273.437500	-48.239777
4275.390625	-48.426804
4277.343750	-47.407906
4279.296875	-47.112774
4281.250000	-46.792053
4283.203125	-46.778790
4285.156250	-46.331150
4287.109375	-45.482170
4289.062500	-44.813919
4291.015625	-45.411774
4292.968750	-44.415363
4294.921875	-43.751190
4296.875000	-44.212608
4298.828125	-44.594559
4300.781250	-43.757133
4302.734375	-43.632984
4304.687500	-44.528400
4306.640625	-44.899372
4308.593750	-45.427979
4310.546875	-45.941422
4312.500000	-46.481384
4314.453125	-46.311466
4316.406250	-45.827442
4318.359375	-46.500076
4320.312500	-46.917690
4322.265625	-48.176701
4324.218750	-48.251087
4326.171875	-48.049549
4328.125000	-48.288597
4330.078125	-48.739872
4332.031250	-48.988194
4333.984375	-49.763145
4335.937500	-50.286461
4337.890625	-50.139454
4339.843750	-50.767967
4341.796875	-51.531456
4343.750000	-51.565983
4345.703125	-53.119144
4347.656250	-52.053448
4349.609375	-51.610973
4351.562500	-52.321518
4353.515625	-52.414093
4355.468750	-53.389450
4357.421875	-53.940327
4359.375000	-53.381668
4361.328125	-53.586037
4363.281250	-53.361282
4365.234375	-53.484665
4367.187500	-54.353970
4369.140625	-54.244564
4371.093750	-54.328617
4373.046875	-54.823318
4375.000000	-54.542496
4376.953125	-54.689579
4378.906250	-55.281914
4380.859375	-55.505596
4382.812500	-55.369183
4384.765625	-55.875134
4386.718750	-55.924171
4388.671875	-55.366924
4390.625000	-55.540607
4392.578125	-55.978218
4394.531250	-55.754761
4396.484375	-56.046005
4398.437500	-56.052223
4400.390625	-56.575611
4402.343750	-57.162617
4404.296875	-57.427502
4406.250000	-56.730198
4408.203125	-56.240078
4410.156250	-56.186050
4412.109375	-57.654110
4414.062500	-57.714558
4416.015625	-56.810265
4417.968750	-56.621754
4419.921875	-56.325912
4421.875000	-56.855968
4423.828125	-56.744141
4425.781250	-57.096485
4427.734375	-57.164204
4429.687500	-57.173134
4431.640625	-57.835281
4433.593750	-57.373943
4435.546875	-56.654495
4437.500000	-57.067913
4439.453125	-57.588192
4441.406250	-57.680798
4443.359375	-57.659729
4445.312500	-56.617870
4447.265625	-56.984951
4449.218750	-57.372738
4451.171875	-57.467415
4453.125000	-57.114872
4455.078125	-57.237984
4457.031250	-57.297459
4458.984375	-56.828197
4460.937500	-57.235943
4462.890625	-57.620892
4464.843750	-56.874527
4466.796875	-56.592529
4468.750000	-56.642315
4470.703125	-57.138218
4472.656250	-57.342289
4474.609375	-57.492420
4476.562500	-57.086864
4478.515625	-56.761703
4480.468750	-57.417759
4482.421875	-57.061371
4484.375000	-56.452469
4486.328125	-56.274467
4488.281250	-56.139271
4490.234375	-55.586437
4492.187500	-56.315544
4494.140625	-56.367504
4496.093750	-55.739338
4498.046875	-55.245003
4500.000000	-55.981281
4501.953125	-55.745296
4503.906250	-55.109779
4505.859375	-55.535198
4507.812500	-55.067142
4509.765625	-54.615562
4511.718750	-53.915016
4513.671875	-54.495125
4515.625000	-54.786350
4517.578125	-54.893436
4519.531250	-54.572636
4521.484375	-54.572289
4523.437500	-53.966869
4525.390625	-53.693321
4527.343750	-53.526848
4529.296875	-52.830647
4531.250000	-52.613201
4533.203125	-52.624783
4535.156250	-51.864948
4537.109375	-51.703442
4539.062500	-51.058002
4541.015625	-51.098976
4542.968750	-50.781796
4544.921875	-51.093849
4546.875000	-50.717751
4548.828125	-50.384792
4550.781250	-50.089748
4552.734375	-49.451969
4554.687500	-48.819580
4556.640625	-48.415470
4558.593750	-48.394722
4560.546875	-47.863010
4562.500000	-47.612610
4564.453125	-47.813011
4566.406250	-47.248936
4568.359375	-46.406200
4570.312500	-45.591953
4572.265625	-46.191170
4574.218750	-46.279991
4576.171875	-45.820690
4578.125000	-46.145290
4580.078125	-45.537167
4582.031250	-45.679920
4583.984375	-45.168255
4585.937500	-44.824253
4587.890625	-45.419781
4589.843750	-45.874352
4591.796875	-45.258804
4593.750000	-45.320427
4595.703125	-45.421478
4597.656250	-45.856682
4599.609375	-46.838707
4601.562500	-46.842739
4603.515625	-47.693554
4605.468750	-47.828213
4607.421875	-48.431206
4609.375000	-48.387875
4611.328125	-49.122971
4613.281250	-49.110718
4615.234375	-49.347889
4617.187500	-49.987720
4619.140625	-49.970394
4621.093750	-49.750568
4623.046875	-50.249107
4625.000000	-51.237068
4626.953125	-51.566753
4628.906250	-51.237148
4630.859375	-52.211121
4632.812500	-52.538376
4634.765625	-52.473087
4636.718750	-53.084095
4638.671875	-52.693333
4640.625000	-53.028805
4642.578125	-53.019257
4644.531250	-52.961182
4646.484375	-53.451061
4648.437500	-53.862782
4650.390625	-53.749630
4652.343750	-53.315540
4654.296875	-53.797768
4656.250000	-54.467121
4658.203125	-54.762566
4660.156250	-55.374767
4662.109375	-55.372326
4664.062500	-55.672523
4666.015625	-55.023212
4667.968750	-55.829563
4669.921875	-56.656418
4671.875000	-56.621826
4673.828125	-55.807968
4675.781250	-55.712788
4677.734375	-55.773056
4679.687500	-56.041977
4681.640625	-56.387276
4683.593750	-56.966461
4685.546875	-56.346073
4687.500000	-56.266895
4689.453125	-56.240482
4691.406250	-56.363419
4693.359375	-56.802895
4695.312500	-57.147110
4697.265625	-56.634506
4699.218750	-56.664845
4701.171875	-57.158726
4703.125000	-57.073952
4705.078125	-56.535343
4707.031250	-56.629692
4708.984375	-57.145596
4710.937500	-57.191921
4712.890625	-57.675117
4714.843750	-56.847267
4716.796875	-56.251495
4718.750000	-57.399265
4720.703125	-58.370049
4722.656250	-58.324211
4724.609375	-57.543415
4726.562500	-57.329174
4728.515625	-57.257305
4730.468750	-57.693779
4732.421875	-56.939793
4734.375000	-57.062599
4736.328125	-56.923927
4738.281250	-56.588215
4740.234375	-57.073990
4742.187500	-57.031693
4744.140625	-57.998425
4746.093750	-56.979439
4748.046875	-56.192348
4750.000000	-56.044594
4751.953125	-56.804684
4753.906250	-56.920509
4755.859375	-57.209522
4757.812500	-57.091949
4759.765625	-57.309788
4761.718750	-57.185524
4763.671875	-57.092644
4765.625000	-56.259521
4767.578125	-55.951817
4769.531250	-55.893749
4771.484375	-56.215679
4773.437500	-56.397556
4775.390625	-55.873478
4777.343750	-55.259537
4779.296875	-54.746796
4781.250000	-55.699154
4783.203125	-55.975601
4785.156250	-55.945644
4787.109375	-55.249653
4789.062500	-55.461788
4791.015625	-55.571213
4792.968750	-54.883827
4794.921875	-54.257893
4796.875000	-54.122334
4798.828125	-53.830231
4800.781250	-53.873249
4802.734375	-54.205482
4804.687500	-54.455379
4806.640625	-53.208118
4808.593750	-52.802528
4810.546875	-52.947067
4812.500000	-52.811985
4814.453125	-52.769184
4816.406250	-52.973713
4818.359375	-52.422749
4820.312500	-51.927715
4822.265625	-51.700966
4824.218750	-51.651363
4826.171875	-51.333179
4828.125000	-51.026581
4830.078125	-50.614857
4832.031250	-50.393539
4833.984375	-49.701241
4835.937500	-49.420166
4837.890625	-49.026981
4839.843750	-48.909187
4841.796875	-48.860416
4843.750000	-48.908001
4845.703125	-48.778618
4847.656250	-47.573444
4849.609375	-46.909962
4851.562500	-46.645935
4853.515625	-46.318436
4855.468750	-45.849808
4857.421875	-45.786598
4859.375000	-44.862984
4861.328125	-45.501804
4863.281250	-46.285320
4865.234375	-45.825413
4867.187500	-45.749176
4869.140625	-45.092659
4871.093750	-45.075878
4873.046875	-45.602966
4875.000000	-45.870403
4876.953125	-45.658932
4878.906250	-45.408432
4880.859375	-46.209576
4882.812500	-47.169025
4884.765625	-46.819580
4886.718750	-46.965012
4888.671875	-47.448376
4890.625000	-47.925030
4892.578125	-48.035553
4894.531250	-48.958984
4896.484375	-49.257290
4898.437500	-48.919186
4900.390625	-49.415684
4902.343750	-49.399986
4904.296875	-49.592823
4906.250000	-50.195465
4908.203125	-50.626900
4910.156250	-51.227886
4912.109375	-51.214775
4914.062500	-51.411301
4916.015625	-51.915306
4917.968750	-52.159195
4919.921875	-52.254566
4921.875000	-52.720951
4923.828125	-52.738586
4925.781250	-52.881779
4927.734375	-52.936764
4929.687500	-53.179577
4931.640625	-53.490887
4933.593750	-53.321182
4935.546875	-53.963345
4937.500000	-54.529892
4939.453125	-54.082413
4941.406250	-54.138466
4943.359375	-54.462795
4945.312500	-54.497089
4947.265625	-54.457489
4949.218750	-54.497978
4951.171875	-54.764088
4953.125000	-54.670944
4955.078125	-54.940956
4957.031250	-54.835663
4958.984375	-55.075043
4960.937500	-56.050953
4962.890625	-55.871296
4964.843750	-55.720543
4966.796875	-55.641495
4968.750000	-55.648663
4970.703125	-56.085621
4972.656250	-55.788471
4974.609375	-56.134144
4976.562500	-56.791309
4978.515625	-56.622066
4980.468750	-56.273689
4982.421875	-56.647476
4984.375000	-56.542057
4986.328125	-56.139393
4988.281250	-55.718784
4990.234375	-55.484554
4992.187500	-56.456573
4994.140625	-57.350090
4996.093750	-56.834778
4998.046875	-56.207676
5000.000000	-56.537247
5001.953125	-56.183994
5003.906250	-56.940025
5005.859375	-57.040539
5007.812500	-56.604374
5009.765625	-56.873184
5011.718750	-56.439381
5013.671875	-56.478539
5015.625000	-56.429260
5017.578125	-56.586060
5019.531250	-56.405235
5021.484375	-57.152527
5023.437500	-57.136662
5025.390625	-57.099255
5027.343750	-57.341579
5029.296875	-56.948853
5031.250000	-57.188812
5033.203125	-55.760990
5035.156250	-55.613888
5037.109375	-56.322021
5039.062500	-55.977798
5041.015625	-55.710678
5042.968750	-55.794193
5044.921875	-55.563263
5046.875000	-55.923580
5048.828125	-55.967022
5050.781250	-55.772610
5052.734375	-55.227089
5054.687500	-55.342289
5056.640625	-55.297752
5058.593750	-55.039436
5060.546875	-54.952930
5062.500000	-55.190426
5064.453125	-55.204296
5066.406250	-54.840687
5068.359375	-54.782410
5070.312500	-54.632530
5072.265625	-54.705391
5074.218750	-54.262272
5076.171875	-54.414780
5078.125000	-54.194366
5080.078125	-53.528809
5082.031250	-54.363567
5083.984375	-53.842312
5085.937500	-53.080006
5087.890625	-52.890537
5089.843750	-52.905495
5091.796875	-52.628273
5093.750000	-52.346428
5095.703125	-52.934292
5097.656250	-52.978382
5099.609375	-52.548328
5101.562500	-52.053219
5103.515625	-51.101131
5105.468750	-51.477444
5107.421875	-51.415722
5109.375000	-50.542648
5111.328125	-49.816528
5113.281250	-49.972149
5115.234375	-50.205444
5117.187500	-49.908493
5119.140625	-49.519684
5121.093750	-49.503193
5123.046875	-48.959442
5125.000000	-48.916302
5126.953125	-49.102192
5128.906250	-48.475929
5130.859375	-48.248005
5132.812500	-47.684231
5134.765625	-47.130333
5136.718750	-46.803101
5138.671875	-46.482380
5140.625000	-46.497589
5142.578125	-46.600941
5144.531250	-46.719883
5146.484375	-46.069195
5148.437500	-45.944729
5150.390625	-46.083092
5152.343750	-46.215878
5154.296875	-45.937836
5156.250000	-45.617821
5158.203125	-46.455326
5160.156250	-46.514339
5162.109375	-45.652512
5164.062500	-45.644253
5166.015625	-46.008587
5167.968750	-46.317890
5169.921875	-47.252171
5171.875000	-47.337620
5173.828125	-47.756435
5175.781250	-48.733433
5177.734375	-48.885155
5179.687500	-48.788559
5181.640625	-49.073746
5183.593750	-49.471928
5185.546875	-48.853207
5187.500000	-49.116570
5189.453125	-49.788597
5191.406250	-49.710026
5193.359375	-50.396656
5195.312500	-50.871857
5197.265625	-50.865601
5199.218750	-50.440826
5201.171875	-50.631618
5203.125000	-51.667152
5205.078125	-51.455391
5207.031250	-51.410599
5208.984375	-51.620197
5210.937500	-52.197975
5212.890625	-52.915440
5214.843750	-52.725338
5216.796875	-53.250645
5218.750000	-53.275337
5220.703125	-52.680588
5222.656250	-52.696796
5224.609375	-52.840504
5226.562500	-53.097923
5228.515625	-53.410206
5230.468750	-54.305031
5232.421875	-54.191746
5234.375000	-53.603794
5236.328125	-53.248543
5238.281250	-54.080223
5240.234375	-54.276421
5242.187500	-54.393406
5244.140625	-54.956787
5246.093750	-54.855682
5248.046875	-55.029701
5250.000000	-55.257244
5251.953125	-55.342289
5253.906250	-55.130295
5255.859375	-54.886059
5257.812500	-54.613964
5259.765625	-54.859467
5261.718750	-55.083256
5263.671875	-55.409828
5265.625000	-55.399502
5267.578125	-54.572632
5269.531250	-55.103180
5271.484375	-54.981018
5273.437500	-55.599846
5275.390625	-55.308430
5277.343750	-55.751019
5279.296875	-55.851101
5281.250000	-55.405647
5283.203125	-55.601521
5285.156250	-55.206337
5287.109375	-54.979046
5289.062500	-55.013268
5291.015625	-54.993736
5292.968750	-55.049236
5294.921875	-55.331032
5296.875000	-55.082020
5298.828125	-55.457493
5300.781250	-55.519417
5302.734375	-55.087864
5304.687500	-55.456787
5306.640625	-55.321758
5308.593750	-54.978264
5310.546875	-54.566975
5312.500000	-55.626171
5314.453125	-55.691288
5316.406250	-55.288261
5318.359375	-55.331612
5320.312500	-54.954891
5322.265625	-54.524601
5324.218750	-54.546047
5326.171875	-54.062992
5328.125000	-54.104195
5330.078125	-54.725227
5332.031250	-54.925529
5333.984375	-55.165257
5335.937500	-54.067486
5337.890625	-54.104050
5339.843750	-54.484390
5341.796875	-54.462818
5343.750000	-54.175262
5345.703125	-54.649395
5347.656250	-54.399616
5349.609375	-53.627617
5351.562500	-53.183430
5353.515625	-53.143963
5355.468750	-53.162186
5357.421875	-53.221405
5359.375000	-52.707680
5361.328125	-52.581337
5363.281250	-52.232468
5365.234375	-52.202106
5367.187500	-52.464535
5369.140625	-52.188950
5371.093750	-51.822147
5373.046875	-52.478058
5375.000000	-51.750763
5376.953125	-51.151512
5378.906250	-50.976517
5380.859375	-50.323906
5382.812500	-50.581326
5384.765625	-50.445736
5386.718750	-50.545807
5388.671875	-50.622734
5390.625000	-50.079643
5392.578125	-49.727440
5394.531250	-49.583885
5396.484375	-49.142200
5398.437500	-49.000401
5400.390625	-48.535950
5402.343750	-48.752396
5404.296875	-48.457024
5406.250000	-47.878880
5408.203125	-47.796535
5410.156250	-47.470215
5412.109375	-46.861958
5414.062500	-46.777271
5416.015625	-46.726692
5417.968750	-46.764038
5419.921875	-46.951000
5421.875000	-46.727917
5423.828125	-46.176502
5425.781250	-45.748226
5427.734375	-46.187771
5429.687500	-46.540234
5431.640625	-46.220783
5433.593750	-46.278023
5435.546875	-46.155685
5437.500000	-45.976933
5439.453125	-45.945179
5441.406250	-45.422405
5443.359375	-45.886002
5445.312500	-45.829613
5447.265625	-46.318577
5449.218750	-46.394081
5451.171875	-46.770557
5453.125000	-47.439007
5455.078125	-47.912403
5457.031250	-47.253151
5458.984375	-47.906322
5460.937500	-47.970535
5462.890625	-47.813324
5464.843750	-48.577965
5466.796875	-48.337154
5468.750000	-48.463448
5470.703125	-48.662949
5472.656250	-48.883698
5474.609375	-49.059452
5476.562500	-49.202057
5478.515625	-49.252583
5480.468750	-49.553822
5482.421875	-49.744328
5484.375000	-49.772312
5486.328125	-50.403984
5488.281250	-51.144360
5490.234375	-51.148979
5492.187500	-50.638653
5494.140625	-50.988407
5496.093750	-51.597202
5498.046875	-50.873669
5500.000000	-51.243587
5501.953125	-51.685818
5503.906250	-52.306946
5505.859375	-52.061661
5507.812500	-52.283463
5509.765625	-52.410545
5511.718750	-52.343449
5513.671875	-52.815182
5515.625000	-51.892460
5517.578125	-52.601276
5519.531250	-52.827728
5521.484375	-52.788120
5523.437500	-52.219498
5525.390625	-52.075420
5527.343750	-52.542416
5529.296875	-53.294018
5531.250000	-53.937328
5533.203125	-53.583733
5535.156250	-53.251949
5537.109375	-53.564163
5539.062500	-53.190903
5541.015625	-53.315029
5542.968750	-53.660522
5544.921875	-53.869404
5546.875000	-54.155197
5548.828125	-53.495762
5550.781250	-53.308445
5552.734375	-53.777187
5554.687500	-53.583344
5556.640625	-53.724880
5558.593750	-53.516087
5560.546875	-54.166977
5562.500000	-54.173519
5564.453125	-53.635368
5566.406250	-53.705894
5568.359375	-53.884174
5570.312500	-54.293503
5572.265625	-53.811600
5574.218750	-53.421719
5576.171875	-54.020672
5578.125000	-54.211555
5580.078125	-53.773823
5582.031250	-53.872620
5583.984375	-53.699963
5585.937500	-53.474888
5587.890625	-53.704845
5589.843750	-53.799114
5591.796875	-53.271408
5593.750000	-53.256405
5595.703125	-53.228092
5597.656250	-53.535851
5599.609375	-53.045391
5601.562500	-52.917038
5603.515625	-54.227154
5605.468750	-53.468166
5607.421875	-52.913742
5609.375000	-52.145943
5611.328125	-52.815632
5613.281250	-52.284470
5615.234375	-51.465244
5617.187500	-52.736549
5619.140625	-52.697159
5621.093750	-52.554859
5623.046875	-52.202671
5625.000000	-52.045368
5626.953125	-51.796585
5628.906250	-51.912193
5630.859375	-52.190723
5632.812500	-52.620655
5634.765625	-51.786972
5636.718750	-51.730801
5638.671875	-51.547504
5640.625000	-50.607841
5642.578125	-50.292542
5644.531250	-50.197495
5646.484375	-50.706665
5648.437500	-50.939842
5650.390625	-50.513103
5652.343750	-49.566387
5654.296875	-49.702995
5656.250000	-49.599228
5658.203125	-49.133789
5660.156250	-49.178669
5662.109375	-49.745388
5664.062500	-49.556053
5666.015625	-49.151669
5667.968750	-48.911209
5669.921875	-48.629002
5671.875000	-49.264946
5673.828125	-48.765781
5675.781250	-48.133102
5677.734375	-48.068558
5679.687500	-48.110016
5681.640625	-47.740795
5683.593750	-47.226360
5685.546875	-46.994682
5687.500000	-46.987728
5689.453125	-47.122894
5691.406250	-46.521935
5693.359375	-46.805542
5695.312500	-46.180882
5697.265625	-46.441704
5699.218750	-45.706364
5701.171875	-45.706806
5703.125000	-46.067085
5705.078125	-46.674873
5707.031250	-46.261772
5708.984375	-45.393658
5710.937500	-45.567486
5712.890625	-45.651054
5714.843750	-45.208683
5716.796875	-45.121960
5718.750000	-45.872120
5720.703125	-46.257607
5722.656250	-45.478458
5724.609375	-45.352039
5726.562500	-45.756714
5728.515625	-46.623608
5730.468750	-46.204865
5732.421875	-46.093071
5734.375000	-47.084969
5736.328125	-47.122128
5738.281250	-47.120266
5740.234375	-46.804966
5742.187500	-46.669773
5744.140625	-46.668488
5746.093750	-47.190727
5748.046875	-47.080730
5750.000000	-47.114864
5751.953125	-47.981609
5753.906250	-48.389378
5755.859375	-47.588829
5757.812500	-47.868851
5759.765625	-48.387032
5761.718750	-48.209869
5763.671875	-48.775517
5765.625000	-49.155277
5767.578125	-49.268612
5769.531250	-49.100346
5771.484375	-50.070961
5773.437500	-50.197327
5775.390625	-50.021812
5777.343750	-49.925823
5779.296875	-50.161591
5781.250000	-50.379585
5783.203125	-49.070133
5785.156250	-48.972832
5787.109375	-49.701195
5789.062500	-50.081440
5791.015625	-50.297520
5792.968750	-50.297478
5794.921875	-50.587631
5796.875000	-50.753056
5798.828125	-50.514576
5800.781250	-50.548138
5802.734375	-50.539810
5804.687500	-51.034809
5806.640625	-50.955036
5808.593750	-51.019073
5810.546875	-51.041828
5812.500000	-51.218319
5814.453125	-50.959927
5816.406250	-51.046799
5818.359375	-50.485226
5820.312500	-51.331337
5822.265625	-52.140564
5824.218750	-51.062099
5826.171875	-50.941101
5828.125000	-51.283649
5830.078125	-51.040413
5832.031250	-50.968750
5833.984375	-51.312222
5835.937500	-52.041920
5837.890625	-50.987988
5839.843750	-50.894852
5841.796875	-51.403049
5843.750000	-50.561008
5845.703125	-50.997238
5847.656250	-51.352074
5849.609375	-51.313843
5851.562500	-51.827599
5853.515625	-50.943684
5855.468750	-51.041733
5857.421875	-51.742153
5859.375000	-51.316830
5861.328125	-51.351761
5863.281250	-50.865887
5865.234375	-50.736511
5867.187500	-50.962730
5869.140625	-51.008278
5871.093750	-51.488888
5873.046875	-51.983196
5875.000000	-51.199406
5876.953125	-50.796673
5878.906250	-50.379284
5880.859375	-50.674885
5882.812500	-50.852512
5884.765625	-50.565041
5886.718750	-50.460522
5888.671875	-50.305077
5890.625000	-50.418446
5892.578125	-50.275795
5894.531250	-50.554817
5896.484375	-50.415501
5898.437500	-50.577724
5900.390625	-49.951683
5902.343750	-50.233772
5904.296875	-49.972412
5906.250000	-49.872116
5908.203125	-49.894730
5910.156250	-49.890171
5912.109375	-49.341953
5914.062500	-49.133186
5916.015625	-49.507351
5917.968750	-48.725361
5919.921875	-47.960899
5921.875000	-48.681255
5923.828125	-49.158916
5925.781250	-49.176327
5927.734375	-49.167789
5929.687500	-49.219257
5931.640625	-48.634266
5933.593750	-48.304623
5935.546875	-48.571465
5937.500000	-48.088196
5939.453125	-47.333839
5941.406250	-47.103748
5943.359375	-47.516102
5945.312500	-47.343056
5947.265625	-47.412971
5949.218750	-47.298576
5951.171875	-47.334080
5953.125000	-47.255356
5955.078125	-47.045670
5957.031250	-46.984863
5958.984375	-47.406803
5960.937500	-46.652107
5962.890625	-47.179195
5964.843750	-47.535709
5966.796875	-46.738022
5968.750000	-47.207447
5970.703125	-47.195755
5972.656250	-46.709221
5974.609375	-46.905041
5976.562500	-47.060684
5978.515625	-47.009853
5980.468750	-47.533283
5982.421875	-46.699085
5984.375000	-46.522060
5986.328125	-46.754101
5988.281250	-46.921089
5990.234375	-47.037548
5992.187500	-47.098698
5994.140625	-47.281490
5996.093750	-47.028885
5998.046875	-47.956429
6000.000000	-47.843159
6001.953125	-46.844521
6003.906250	-47.085182
6005.859375	-47.421654
6007.812500	-46.874146
6009.765625	-47.039459
6011.718750	-47.419704
6013.671875	-47.417027
6015.625000	-46.962742
6017.578125	-47.709396
6019.531250	-47.098057
6021.484375	-47.161457
6023.437500	-47.744381
6025.390625	-47.925850
6027.343750	-47.952290
6029.296875	-47.913490
6031.250000	-48.027470
6033.203125	-47.586823
6035.156250	-47.742054
6037.109375	-48.385357
6039.062500	-48.566071
6041.015625	-47.526203
6042.968750	-47.270638
6044.921875	-47.909229
6046.875000	-47.966290
6048.828125	-47.943138
6050.781250	-47.842316
6052.734375	-48.345177
6054.687500	-48.424992
6056.640625	-48.388546
6058.593750	-48.347164
6060.546875	-47.888260
6062.500000	-48.138374
6064.453125	-47.897911
6066.406250	-48.054844
6068.359375	-48.406464
6070.312500	-48.327496
6072.265625	-48.927528
6074.218750	-48.764591
6076.171875	-49.057472
6078.125000	-48.457481
6080.078125	-48.646595
6082.031250	-48.411980
6083.984375	-48.026226
6085.937500	-48.631493
6087.890625	-48.445400
6089.843750	-48.619537
6091.796875	-49.309292
6093.750000	-49.300449
6095.703125	-48.739086
6097.656250	-48.578743
6099.609375	-49.661579
6101.562500	-49.459259
6103.515625	-48.840687
6105.468750	-49.102444
6107.421875	-48.873627
6109.375000	-48.863190
6111.328125	-48.659760
6113.281250	-49.088497
6115.234375	-49.217968
6117.187500	-48.198051
6119.140625	-48.703835
6121.093750	-48.869850
6123.046875	-48.401794
6125.000000	-49.280602
6126.953125	-49.068798
6128.906250	-48.928638
6130.859375	-48.941307
6132.812500	-49.566700
6134.765625	-49.609550
6136.718750	-49.375282
6138.671875	-49.506111
6140.625000	-49.655018
6142.578125	-49.442982
6144.531250	-49.119537
6146.484375	-49.027538
6148.437500	-49.083645
6150.390625	-49.104542
6152.343750	-49.618298
6154.296875	-49.768631
6156.250000	-49.930462
6158.203125	-49.820045
6160.156250	-49.700943
6162.109375	-49.092384
6164.062500	-49.566494
6166.015625	-49.678631
6167.968750	-49.034092
6169.921875	-49.230797
6171.875000	-50.167725
6173.828125	-49.285694
6175.781250	-49.137547
6177.734375	-48.858292
6179.687500	-49.398960
6181.640625	-49.665668
6183.593750	-50.079411
6185.546875	-49.656712
6187.500000	-49.458431
6189.453125	-49.744328
6191.406250	-49.588188
6193.359375	-49.427238
6195.312500	-49.390083
6197.265625	-49.551651
6199.218750	-49.623230
6201.171875	-49.891830
6203.125000	-49.831287
6205.078125	-50.081982
6207.031250	-49.686661
6208.984375	-50.203293
6210.937500	-50.320103
6212.890625	-50.155174
6214.843750	-50.304646
6216.796875	-50.576260
6218.750000	-50.870033
6220.703125	-50.259258
6222.656250	-50.171963
6224.609375	-50.975132
6226.562500	-50.536705
6228.515625	-50.130749
6230.468750	-50.184731
6232.421875	-50.706497
6234.375000	-50.228878
6236.328125	-49.898430
6238.281250	-50.439308
6240.234375	-49.582100
6242.187500	-49.981594
6244.140625	-50.266876
6246.093750	-50.438747
6248.046875	-50.660995
6250.000000	-50.580318
6251.953125	-51.558620
6253.906250	-50.457798
6255.859375	-50.539295
6257.812500	-50.867275
6259.765625	-49.992393
6261.718750	-50.332611
6263.671875	-50.505257
6265.625000	-50.317593
6267.578125	-49.724480
6269.531250	-49.931881
6271.484375	-50.165482
6273.437500	-50.130043
6275.390625	-49.734043
6277.343750	-49.885620
6279.296875	-50.277512
6281.250000	-50.751907
6283.203125	-50.391853
6285.156250	-50.500343
6287.109375	-50.537388
6289.062500	-50.313576
6291.015625	-50.486027
6292.968750	-50.410576
6294.921875	-50.297043
6296.875000	-49.730644
6298.828125	-49.575993
6300.781250	-49.469059
6302.734375	-50.039749
6304.687500	-49.431366
6306.640625	-49.497822
6308.593750	-50.073875
6310.546875	-49.928684
6312.500000	-49.826874
6314.453125	-51.234180
6316.406250	-50.554237
6318.359375	-50.715981
6320.312500	-51.197678
6322.265625	-50.234623
6324.218750	-49.957329
6326.171875	-50.899475
6328.125000	-50.392460
6330.078125	-49.265480
6332.031250	-48.758121
6333.984375	-49.228157
6335.937500	-49.301407
6337.890625	-48.575596
6339.843750	-48.535072
6341.796875	-49.286278
6343.750000	-49.542797
6345.703125	-49.162621
6347.656250	-48.955887
6349.609375	-48.606133
6351.562500	-49.841850
6353.515625	-49.925640
6355.468750	-49.390110
6357.421875	-48.955658
6359.375000	-48.755585
6361.328125	-49.225693
6363.281250	-48.996891
6365.234375	-49.514744
6367.187500	-49.733589
6369.140625	-49.943329
6371.093750	-49.312622
6373.046875	-49.809311
6375.000000	-49.482349
6376.953125	-48.859463
6378.906250	-49.119949
6380.859375	-49.464142
6382.812500	-49.465759
6384.765625	-50.029659
6386.718750	-49.715744
6388.671875	-50.130226
6390.625000	-50.406021
6392.578125	-50.269226
6394.531250	-50.211834
6396.484375	-50.418724
6398.437500	-50.559166
6400.390625	-50.310795
6402.343750	-50.169998
6404.296875	-50.623886
6406.250000	-51.037678
6408.203125	-51.581173
6410.156250	-52.149895
6412.109375	-51.188763
6414.062500	-50.860195
6416.015625	-51.372742
6417.968750	-51.390839
6419.921875	-51.667435
6421.875000	-52.233974
6423.828125	-51.911854
6425.781250	-52.492985
6427.734375	-52.312351
6429.687500	-52.611122
6431.640625	-52.400677
6433.593750	-52.525276
6435.546875	-52.664017
6437.500000	-52.231110
6439.453125	-52.425831
6441.406250	-52.787663
6443.359375	-52.744335
6445.312500	-53.056938
6447.265625	-53.318489
6449.218750	-54.475929
6451.171875	-54.447044
6453.125000	-54.599556
6455.078125	-54.751526
6457.031250	-54.852493
6458.984375	-53.702988
6460.937500	-54.140289
6462.890625	-54.804226
6464.843750	-54.004528
6466.796875	-53.699966
6468.750000	-53.926636
6470.703125	-53.989334
6472.656250	-54.295444
6474.609375	-54.960266
6476.562500	-55.431587
6478.515625	-54.862495
6480.468750	-54.564213
6482.421875	-54.995193
6484.375000	-55.246361
6486.328125	-55.612617
6488.281250	-55.100616
6490.234375	-54.957623
6492.187500	-55.179504
6494.140625	-55.376015
6496.093750	-56.081741
6498.046875	-55.037357
6500.000000	-54.950745
6501.953125	-55.781940
6503.906250	-56.151325
6505.859375	-56.162090
6507.812500	-55.856026
6509.765625	-55.632652
6511.718750	-55.762241
6513.671875	-56.383217
6515.625000	-56.531254
6517.578125	-56.388855
6519.531250	-56.800163
6521.484375	-55.993259
6523.437500	-55.426758
6525.390625	-56.133850
6527.343750	-56.178844
6529.296875	-56.022675
6531.250000	-56.241680
6533.203125	-56.634384
6535.156250	-56.731342
6537.109375	-56.709141
6539.062500	-55.803833
6541.015625	-56.087490
6542.968750	-57.321510
6544.921875	-57.054386
6546.875000	-56.307083
6548.828125	-55.761131
6550.781250	-56.500332
6552.734375	-56.294052
6554.687500	-56.286617
6556.640625	-56.924389
6558.593750	-56.738060
6560.546875	-56.390942
6562.500000	-56.237942
6564.453125	-56.562340
6566.406250	-55.728699
6568.359375	-55.872166
6570.312500	-56.039017
6572.265625	-55.823025
6574.218750	-55.985703
6576.171875	-56.038368
6578.125000	-55.594604
6580.078125	-55.258469
6582.031250	-55.742455
6583.984375	-55.250931
6585.937500	-54.734097
6587.890625	-55.336922
6589.843750	-54.807861
6591.796875	-54.615978
6593.750000	-54.378403
6595.703125	-54.393909
6597.656250	-54.382969
6599.609375	-54.556923
6601.562500	-54.888687
6603.515625	-54.728085
6605.468750	-53.872086
6607.421875	-53.915337
6609.375000	-53.863495
6611.328125	-53.500202
6613.281250	-53.454948
6615.234375	-53.291321
6617.187500	-53.762997
6619.140625	-53.631657
6621.093750	-53.095779
6623.046875	-53.150288
6625.000000	-52.945332
6626.953125	-52.844910
6628.906250	-52.794411
6630.859375	-52.989223
6632.812500	-52.669651
6634.765625	-52.319427
6636.718750	-52.379375
6638.671875	-52.586163
6640.625000	-52.887627
6642.578125	-52.995644
6644.531250	-52.633850
6646.484375	-52.465233
6648.437500	-52.260693
6650.390625	-52.321293
6652.343750	-52.333282
6654.296875	-53.108994
6656.250000	-53.276222
6658.203125	-53.321854
6660.156250	-53.747410
6662.109375	-54.079853
6664.062500	-54.622540
6666.015625	-55.237988
6667.968750	-55.199390
6669.921875	-54.839470
6671.875000	-55.255131
6673.828125	-56.132812
6675.781250	-56.010220
6677.734375	-55.313560
6679.687500	-55.427212
6681.640625	-55.928307
6683.593750	-56.074341
6685.546875	-56.771694
6687.500000	-56.014606
6689.453125	-56.456806
6691.406250	-57.523270
6693.359375	-57.328957
6695.312500	-57.619816
6697.265625	-57.883865
6699.218750	-58.125134
6701.171875	-58.060921
6703.125000	-58.493763
6705.078125	-58.068748
6707.031250	-58.658546
6708.984375	-58.518211
6710.937500	-58.868382
6712.890625	-59.325584
6714.843750	-59.611732
6716.796875	-59.481327
6718.750000	-59.935059
6720.703125	-60.476318
6722.656250	-60.516270
6724.609375	-60.342674
6726.562500	-60.081570
6728.515625	-60.460953
6730.468750	-60.820450
6732.421875	-61.174084
6734.375000	-61.417824
6736.328125	-61.102131
6738.281250	-61.119896
6740.234375	-61.867447
6742.187500	-61.380508
6744.140625	-61.265476
6746.093750	-61.765629
6748.046875	-62.174911
6750.000000	-62.211479
6751.953125	-62.576263
6753.906250	-62.400970
6755.859375	-62.208549
6757.812500	-62.975101
6759.765625	-62.927593
6761.718750	-62.863800
6763.671875	-63.017017
6765.625000	-62.536613
6767.578125	-62.624866
6769.531250	-62.998672
6771.484375	-63.392391
6773.437500	-63.740540
6775.390625	-63.738800
6777.343750	-63.243458
6779.296875	-63.837566
6781.250000	-64.566650
6783.203125	-63.950794
6785.156250	-63.823154
6787.109375	-64.494049
6789.062500	-64.020355
6791.015625	-63.606228
6792.968750	-64.396133
6794.921875	-63.557816
6796.875000	-63.243793
6798.828125	-63.712025
6800.781250	-63.977962
6802.734375	-63.752827
6804.687500	-63.979446
6806.640625	-64.243416
6808.593750	-63.864605
6810.546875	-63.573402
6812.500000	-64.067062
6814.453125	-64.484398
6816.406250	-63.919521
6818.359375	-63.720161
6820.312500	-63.551788
6822.265625	-63.807285
6824.218750	-64.110168
6826.171875	-63.584053
6828.125000	-64.059402
6830.078125	-63.826141
6832.031250	-63.650688
6833.984375	-64.036438
6835.937500	-63.362152
6837.890625	-63.949070
6839.843750	-64.415916
6841.796875	-63.641544
6843.750000	-64.207352
6845.703125	-64.645409
6847.656250	-63.926094
6849.609375	-63.579872
6851.562500	-63.573933
6853.515625	-63.778362
6855.468750	-63.404137
6857.421875	-63.387115
6859.375000	-62.918137
6861.328125	-62.414375
6863.281250	-62.822632
6865.234375	-62.610191
6867.187500	-62.718842
6869.140625	-63.023247
6871.093750	-63.507069
6873.046875	-62.472775
6875.000000	-62.450359
6876.953125	-62.547836
6878.906250	-61.512543
6880.859375	-60.902077
6882.812500	-61.143410
6884.765625	-61.502495
6886.718750	-61.882313
6888.671875	-61.081673
6890.625000	-61.082035
6892.578125	-61.285889
6894.531250	-61.396809
6896.484375	-61.099541
6898.437500	-60.462391
6900.390625	-59.869694
6902.343750	-59.957718
6904.296875	-59.683441
6906.250000	-59.653488
6908.203125	-59.671371
6910.156250	-59.540878
6912.109375	-60.140335
6914.062500	-59.875141
6916.015625	-59.723255
6917.968750	-59.900452
6919.921875	-59.360317
6921.875000	-59.353508
6923.828125	-59.749432
6925.781250	-59.825375
6927.734375	-59.903355
6929.687500	-60.309223
6931.640625	-60.047817
6933.593750	-60.583061
6935.546875	-61.049133
6937.500000	-61.134842
6939.453125	-60.895000
6941.406250	-60.866291
6943.359375	-61.038296
6945.312500	-62.392719
6947.265625	-62.524788
6949.218750	-62.706070
6951.171875	-62.862289
6953.125000	-63.306374
6955.078125	-63.173340
6957.031250	-63.340191
6958.984375	-63.970234
6960.937500	-64.366676
6962.890625	-64.537529
6964.843750	-65.223564
6966.796875	-64.805748
6968.750000	-64.866417
6970.703125	-65.576080
6972.656250	-65.704254
6974.609375	-65.857422
6976.562500	-66.427048
6978.515625	-66.872841
6980.468750	-66.736588
6982.421875	-66.890694
6984.375000	-67.466904
6986.328125	-67.515846
6988.281250	-67.586678
6990.234375	-67.853104
6992.187500	-67.855858
6994.140625	-68.151077
6996.093750	-68.310944
6998.046875	-68.560181
7000.000000	-69.040459
7001.953125	-69.348579
7003.906250	-68.747650
7005.859375	-69.407936
7007.812500	-70.253487
7009.765625	-70.538162
7011.718750	-70.393242
7013.671875	-69.904129
7015.625000	-70.014275
7017.578125	-71.119102
7019.531250	-71.074608
7021.484375	-71.287018
7023.437500	-70.926254
7025.390625	-71.047569
7027.343750	-71.088402
7029.296875	-71.518280
7031.250000	-71.757034
7033.203125	-72.127769
7035.156250	-72.392387
7037.109375	-72.530205
7039.062500	-71.962990
7041.015625	-72.198563
7042.968750	-72.552498
7044.921875	-72.547882
7046.875000	-72.358604
7048.828125	-72.859886
7050.781250	-73.112579
7052.734375	-73.191498
7054.687500	-72.626152
7056.640625	-72.931129
7058.593750	-73.178673
7060.546875	-73.313057
7062.500000	-73.558029
7064.453125	-74.031860
7066.406250	-73.952843
7068.359375	-74.354713
7070.312500	-73.649498
7072.265625	-73.518578
7074.218750	-73.717903
7076.171875	-74.513062
7078.125000	-74.691299
7080.078125	-74.899094
7082.031250	-75.106026
7083.984375	-74.675652
7085.937500	-74.536064
7087.890625	-74.167114
7089.843750	-74.507942
7091.796875	-73.786095
7093.750000	-74.230324
7095.703125	-74.391281
7097.656250	-74.055077
7099.609375	-73.665276
7101.562500	-74.112717
7103.515625	-74.709656
7105.468750	-74.985306
7107.421875	-74.939095
7109.375000	-75.550056
7111.328125	-75.065453
7113.281250	-74.688728
7115.234375	-74.880798
7117.187500	-74.219849
7119.140625	-74.408836
7121.093750	-75.110847
7123.046875	-75.041214
7125.000000	-74.353416
7126.953125	-73.965858
7128.906250	-74.472656
7130.859375	-74.170769
7132.812500	-74.240021
7134.765625	-74.305489
7136.718750	-74.311745
7138.671875	-74.798225
7140.625000	-74.813034
7142.578125	-74.767174
7144.531250	-73.125092
7146.484375	-73.164917
7148.437500	-73.347603
7150.390625	-73.312294
7152.343750	-72.858604
7154.296875	-73.149086
7156.250000	-73.428223
7158.203125	-73.354256
7160.156250	-73.290634
7162.109375	-73.207817
7164.062500	-72.419632
7166.015625	-72.084267
7167.968750	-72.122734
7169.921875	-72.415565
7171.875000	-72.367905
7173.828125	-72.173256
7175.781250	-71.668739
7177.734375	-71.552727
7179.687500	-71.674538
7181.640625	-71.740829
7183.593750	-71.192200
7185.546875	-71.158638
7187.500000	-70.711784
7189.453125	-70.800781
7191.406250	-70.368019
7193.359375	-69.815811
7195.312500	-70.275078
7197.265625	-70.606377
7199.218750	-70.811310
7201.171875	-70.474838
7203.125000	-70.582253
7205.078125	-71.004372
7207.031250	-71.131508
7208.984375	-71.404503
7210.937500	-71.765198
7212.890625	-71.451744
7214.843750	-71.369408
7216.796875	-71.790916
7218.750000	-71.655403
7220.703125	-72.021881
7222.656250	-72.420807
7224.609375	-73.047859
7226.562500	-73.909393
7228.515625	-73.874687
7230.468750	-73.962357
7232.421875	-74.309898
7234.375000	-73.985161
7236.328125	-74.164902
7238.281250	-74.467384
7240.234375	-75.429420
7242.187500	-75.885597
7244.140625	-75.965279
7246.093750	-76.498619
7248.046875	-76.424362
7250.000000	-76.457832
7251.953125	-76.839676
7253.906250	-76.968285
7255.859375	-77.779564
7257.812500	-77.420624
7259.765625	-78.356529
7261.718750	-78.958382
7263.671875	-78.316795
7265.625000	-78.478058
7267.578125	-79.287224
7269.531250	-80.117218
7271.484375	-80.099556
7273.437500	-80.593529
7275.390625	-80.639679
7277.343750	-80.759872
7279.296875	-81.522652
7281.250000	-80.833092
7283.203125	-82.105721
7285.156250	-82.490273
7287.109375	-82.493965
7289.062500	-82.413589
7291.015625	-82.592003
7292.968750	-83.409996
7294.921875	-83.912994
7296.875000	-83.470512
7298.828125	-83.094147
7300.781250	-82.902084
7302.734375	-82.777161
7304.687500	-83.487350
7306.640625	-84.249771
7308.593750	-84.447556
7310.546875	-84.262070
7312.500000	-83.742035
7314.453125	-84.127869
7316.406250	-84.692039
7318.359375	-85.302971
7320.312500	-85.353653
7322.265625	-85.360641
7324.218750	-85.529144
7326.171875	-85.353760
7328.125000	-85.870064
7330.078125	-86.449104
7332.031250	-86.306412
7333.984375	-86.455605
7335.937500	-85.784264
7337.890625	-84.678940
7339.843750	-85.292892
7341.796875	-86.524483
7343.750000	-86.914810
7345.703125	-87.158394
7347.656250	-86.817337
7349.609375	-87.379967
7351.562500	-87.364189
7353.515625	-87.422318
7355.468750	-87.242760
7357.421875	-86.979446
7359.375000	-87.548096
7361.328125	-88.304314
7363.281250	-87.903809
7365.234375	-87.702339
7367.187500	-87.504570
7369.140625	-87.636963
7371.093750	-87.310913
7373.046875	-87.412704
7375.000000	-87.719528
7376.953125	-87.578941
7378.906250	-88.641518
7380.859375	-88.311798
7382.812500	-88.681786
7384.765625	-88.674141
7386.718750	-89.209694
7388.671875	-89.234535
7390.625000	-88.825462
7392.578125	-88.651466
7394.531250	-88.747116
7396.484375	-88.757278
7398.437500	-88.427963
7400.390625	-88.825661
7402.343750	-89.110641
7404.296875	-88.787338
7406.250000	-88.369843
7408.203125	-88.396873
7410.156250	-89.198303
7412.109375	-88.815331
7414.062500	-89.101929
7416.015625	-88.827103
7417.968750	-88.714104
7419.921875	-88.912025
7421.875000	-88.695251
7423.828125	-88.533226
7425.781250	-89.201935
7427.734375	-89.231224
7429.687500	-88.792061
7431.640625	-88.448402
7433.593750	-88.450157
7435.546875	-88.617729
7437.500000	-88.447350
7439.453125	-88.125710
7441.406250	-88.444954
7443.359375	-88.377220
7445.312500	-87.818596
7447.265625	-87.550163
7449.218750	-87.797821
7451.171875	-88.362930
7453.125000	-88.182449
7455.078125	-87.801842
7457.031250	-87.493752
7458.984375	-87.191460
7460.937500	-87.121216
7462.890625	-86.471169
7464.843750	-86.386284
7466.796875	-87.006729
7468.750000	-87.300865
7470.703125	-87.071732
7472.656250	-86.603462
7474.609375	-86.010231
7476.562500	-86.832932
7478.515625	-86.774475
7480.468750	-86.586250
7482.421875	-86.146873
7484.375000	-86.464836
7486.328125	-86.111298
7488.281250	-85.797180
7490.234375	-86.344017
7492.187500	-86.512039
7494.140625	-86.371834
7496.093750	-86.881554
7498.046875	-87.642914
7500.000000	-87.609612
7501.953125	-88.351219
7503.906250	-88.144623
7505.859375	-88.686089
7507.812500	-89.056076
7509.765625	-89.303452
7511.718750	-89.535255
7513.671875	-89.878510
7515.625000	-90.714493
7517.578125	-90.974388
7519.531250	-91.122505
7521.484375	-91.631981
7523.437500	-91.986916
7525.390625	-91.720192
7527.343750	-91.849930
7529.296875	-92.946068
7531.250000	-93.693802
7533.203125	-94.355370
7535.156250	-94.213852
7537.109375	-94.236320
7539.062500	-94.691788
7541.015625	-95.575340
7542.968750	-95.998032
7544.921875	-96.930756
7546.875000	-96.482353
7548.828125	-96.496933
7550.781250	-96.652725
7552.734375	-96.820107
7554.687500	-98.160858
7556.640625	-99.051796
7558.593750	-99.292603
7560.546875	-99.167770
7562.500000	-99.534073
7564.453125	-99.421349
7566.406250	-99.747215
7568.359375	-99.792656
7570.312500	-99.707428
7572.265625	-100.588455
7574.218750	-100.049042
7576.171875	-100.706345
7578.125000	-101.395081
7580.078125	-101.226349
7582.031250	-101.415344
7583.984375	-101.763107
7585.937500	-102.421776
7587.890625	-102.573914
7589.843750	-102.593513
7591.796875	-102.367111
7593.750000	-102.648346
7595.703125	-102.542587
7597.656250	-103.539673
7599.609375	-104.371262
7601.562500	-104.791496
7603.515625	-104.490143
7605.468750	-104.034218
7607.421875	-104.289040
7609.375000	-104.559006
7611.328125	-104.534576
7613.281250	-104.942284
7615.234375	-105.218521
7617.187500	-105.718781
7619.140625	-105.735542
7621.093750	-106.198570
7623.046875	-105.927643
7625.000000	-106.798264
7626.953125	-107.447769
7628.906250	-107.576233
7630.859375	-106.955101
7632.812500	-106.985802
7634.765625	-107.362488
7636.718750	-107.913559
7638.671875	-107.607040
7640.625000	-107.497566
7642.578125	-108.098755
7644.531250	-109.054199
7646.484375	-108.487106
7648.437500	-108.499382
7650.390625	-108.975182
7652.343750	-109.451920
7654.296875	-109.400932
7656.250000	-109.608505
7658.203125	-109.361191
7660.156250	-109.692062
7662.109375	-109.995094
7664.062500	-109.988258
7666.015625	-111.096039
7667.968750	-111.672760
7669.921875	-111.093727
7671.875000	-111.439865
7673.828125	-112.406845
7675.781250	-111.782364
7677.734375	-112.490738
7679.687500	-112.580177
7681.640625	-112.946136
7683.593750	-113.019424
7685.546875	-112.592339
7687.500000	-113.241943
7689.453125	-114.054123
7691.406250	-113.685074
7693.359375	-114.456139
7695.312500	-114.352036
7697.265625	-114.267868
7699.218750	-114.843231
7701.171875	-115.199837
7703.125000	-115.218376
7705.078125	-115.471626
7707.031250	-116.513496
7708.984375	-117.260605
7710.937500	-116.743439
7712.890625	-117.122963
7714.843750	-116.756371
7716.796875	-117.043373
7718.750000	-117.181915
7720.703125	-117.618599
7722.656250	-118.118057
7724.609375	-118.745728
7726.562500	-119.321655
7728.515625	-119.379921
7730.468750	-119.314018
7732.421875	-119.413345
7734.375000	-120.046921
7736.328125	-119.708786
7738.281250	-119.991669
7740.234375	-120.560768
7742.187500	-121.553818
7744.140625	-122.273361
7746.093750	-122.656319
7748.046875	-122.681450
7750.000000	-122.525658
7751.953125	-122.738808
7753.906250	-123.280746
7755.859375	-123.525253
7757.812500	-124.061882
7759.765625	-124.128716
7761.718750	-124.926285
7763.671875	-124.926956
7765.625000	-125.596352
7767.578125	-126.007530
7769.531250	-126.670738
7771.484375	-126.761398
7773.437500	-127.383072
7775.390625	-128.168472
7777.343750	-128.723709
7779.296875	-128.939133
7781.250000	-128.895828
7783.203125	-128.739563
7785.156250	-129.641357
7787.109375	-130.333267
7789.062500	-131.409851
7791.015625	-131.741684
7792.968750	-132.001221
7794.921875	-132.943558
7796.875000	-134.088531
7798.828125	-133.977814
7800.781250	-134.327850
7802.734375	-134.685364
7804.687500	-135.232330
7806.640625	-136.143677
7808.593750	-137.439346
7810.546875	-137.337067
7812.500000	-137.293396
7814.453125	-138.506592
7816.406250	-139.691696
7818.359375	-140.095184
7820.312500	-140.254929
7822.265625	-140.243408
7824.218750	-141.501465
7826.171875	-142.378876
7828.125000	-143.080475
7830.078125	-143.702927
7832.031250	-144.239059
7833.984375	-144.563004
7835.937500	-144.938034
7837.890625	-145.773514
7839.843750	-146.625153
7841.796875	-147.285126
7843.750000	-147.575287
7845.703125	-148.011063
7847.656250	-149.124222
7849.609375	-150.713913
7851.562500	-150.939758
7853.515625	-152.039871
7855.468750	-153.197021
7857.421875	-152.839737
7859.375000	-153.688095
7861.328125	-154.351898
7863.281250	-155.303162
7865.234375	-156.139145
7867.187500	-157.389725
7869.140625	-158.399292
7871.093750	-158.754898
7873.046875	-159.397720
7875.000000	-159.735641
7876.953125	-160.211304
7878.906250	-161.631180
7880.859375	-162.963226
7882.812500	-163.629562
7884.765625	-164.627869
7886.718750	-165.360336
7888.671875	-166.172531
7890.625000	-167.680298
7892.578125	-168.296005
7894.531250	-168.955734
7896.484375	-169.554703
7898.437500	-170.686356
7900.390625	-172.118240
7902.343750	-172.995270
7904.296875	-173.700455
7906.250000	-174.844788
7908.203125	-176.362885
7910.156250	-177.601669
7912.109375	-178.432266
7914.062500	-179.150101
7916.015625	-179.064774
7917.968750	-179.928635
7919.921875	-181.203354
7921.875000	-182.952911
7923.828125	-182.984024
7925.781250	-184.061829
7927.734375	-184.822159
7929.687500	-185.970276
7931.640625	-186.785278
7933.593750	-186.844330
7935.546875	-188.522156
7937.500000	-188.045609
7939.453125	-188.164764
7941.406250	-188.848511
7943.359375	-188.350082
7945.312500	-189.294144
7947.265625	-188.614243
7949.218750	-188.135834
7951.171875	-189.189240
7953.125000	-190.234940
7955.078125	-189.048004
7957.031250	-189.663361
7958.984375	-189.373657
7960.937500	-188.704132
7962.890625	-189.025192
7964.843750	-189.377563
7966.796875	-189.420471
7968.750000	-188.505432
7970.703125	-188.703400
7972.656250	-189.261551
7974.609375	-188.779663
7976.562500	-188.444550
7978.515625	-188.267975
7980.468750	-187.758698
7982.421875	-188.487701
7984.375000	-188.402649
7986.328125	-188.421295
7988.281250	-188.375015
7990.234375	-188.002121
7992.187500	-187.750687
7994.140625	-187.841644
7996.093750	-188.201645
7998.046875	-188.366150
